timestamps,TP9,AF7,AF8,TP10,Marker0
1594927676.527,-26.367,-27.832,-28.320,-11.719,0
1594927676.531,-27.344,-29.785,-28.320,-12.207,0
1594927676.535,-30.762,-30.273,-25.391,-13.184,0
1594927676.539,-22.461,-29.785,-28.809,-12.695,0
1594927676.543,-23.926,-32.715,-28.320,-24.902,0
1594927676.547,-27.832,-33.203,-38.086,-30.762,0
1594927676.551,-36.621,-30.273,-39.062,-21.484,0
1594927676.554,-41.504,-26.367,-36.621,-30.273,0
1594927676.558,-36.621,-25.879,-38.086,-36.621,0
1594927676.562,-37.598,-30.273,-36.133,-46.387,0
1594927676.566,-38.574,-27.344,-38.086,-61.035,0
1594927676.570,-43.457,-21.484,-35.156,-50.781,0
1594927676.584,-39.551,-19.531,-31.250,-39.551,0
1594927676.588,-31.738,-19.531,-32.227,-37.598,0
1594927676.592,-33.203,-16.113,-27.344,-43.457,0
1594927676.596,-36.621,-20.508,-31.250,-51.758,0
1594927676.600,-22.949,-29.297,-32.227,-48.828,0
1594927676.604,-15.625,-23.438,-25.391,-41.504,0
1594927676.608,-23.926,-26.367,-23.926,-35.156,0
1594927676.611,-29.297,-34.668,-23.438,-29.297,0
1594927676.615,-35.156,-33.203,-26.367,-25.879,0
1594927676.619,-37.598,-34.668,-28.809,-22.461,0
1594927676.623,-30.762,-34.180,-29.785,-22.949,0
1594927676.627,-37.598,-32.715,-31.250,-31.250,0
1594927676.620,-39.062,-32.715,-30.762,-31.250,0
1594927676.624,-33.203,-31.250,-30.762,-25.879,0
1594927676.628,-32.715,-32.227,-35.645,-21.484,0
1594927676.632,-32.715,-38.086,-35.645,-19.531,0
1594927676.636,-45.898,-37.598,-36.133,-31.250,0
1594927676.640,-56.641,-38.086,-36.621,-40.039,0
1594927676.644,-56.152,-36.621,-28.320,-33.203,0
1594927676.647,-62.500,-40.527,-28.809,-38.086,0
1594927676.651,-60.547,-45.898,-33.691,-38.574,0
1594927676.655,-53.711,-42.480,-29.297,-35.156,0
1594927676.659,-47.363,-37.598,-27.832,-38.086,0
1594927676.663,-38.086,-29.785,-27.832,-35.645,0
1594927676.676,-28.809,-30.273,-32.227,-31.738,0
1594927676.680,-25.391,-24.414,-29.785,-27.344,0
1594927676.684,-18.066,-11.230,-21.484,-28.809,0
1594927676.688,-27.344,-19.531,-27.832,-29.297,0
1594927676.692,-36.133,-26.855,-34.180,-32.715,0
1594927676.696,-29.785,-31.738,-35.645,-33.691,0
1594927676.700,-29.785,-36.133,-33.203,-32.715,0
1594927676.703,-31.250,-34.180,-31.250,-38.574,0
1594927676.707,-29.785,-32.715,-33.691,-39.551,0
1594927676.711,-26.367,-38.574,-29.785,-42.480,0
1594927676.715,-24.902,-39.551,-31.250,-42.969,0
1594927676.719,-21.484,-33.203,-33.203,-34.180,0
1594927676.714,-27.832,-32.715,-40.039,-35.645,0
1594927676.718,-37.109,-38.086,-37.598,-40.527,0
1594927676.722,-40.039,-38.574,-35.156,-36.621,0
1594927676.726,-43.457,-36.133,-37.598,-24.902,0
1594927676.730,-62.988,-40.039,-28.809,-16.113,0
1594927676.734,-73.242,-41.016,-25.879,-14.160,0
1594927676.738,-64.453,-38.574,-29.785,-6.836,0
1594927676.741,-61.035,-35.645,-27.344,-7.812,0
1594927676.745,-50.781,-33.691,-28.320,-11.719,0
1594927676.749,-39.062,-29.297,-23.926,-13.184,0
1594927676.753,-33.203,-34.180,-20.020,-19.043,0
1594927676.757,-36.133,-37.109,-20.996,-35.156,0
1594927676.770,-26.367,-33.203,-21.484,-32.227,0
1594927676.774,-25.391,-38.086,-29.297,-18.066,0
1594927676.778,-31.738,-38.574,-26.855,-23.926,0
1594927676.782,-23.438,-37.598,-25.391,-30.762,0
1594927676.786,-28.320,-35.156,-27.832,-30.762,0
1594927676.790,-27.832,-34.180,-28.809,-43.457,0
1594927676.794,-28.320,-31.738,-37.109,-44.434,0
1594927676.797,-24.414,-28.320,-30.762,-42.480,0
1594927676.801,-20.508,-33.203,-14.160,-48.340,0
1594927676.805,-29.785,-29.297,-18.066,-47.363,0
1594927676.809,-29.297,-28.809,-24.902,-45.410,0
1594927676.813,-34.180,-31.250,-22.461,-47.852,0
1594927676.809,-43.457,-26.367,-21.973,-36.621,0
1594927676.813,-47.363,-25.391,-17.090,-24.414,0
1594927676.817,-51.270,-26.367,-13.672,-27.344,0
1594927676.821,-48.340,-28.809,-28.320,-26.367,0
1594927676.825,-43.457,-24.902,-26.367,-24.902,0
1594927676.829,-37.598,-22.949,-21.973,-29.785,0
1594927676.833,-32.715,-34.180,-23.926,-16.602,0
1594927676.836,-39.062,-40.527,-27.832,-22.461,0
1594927676.840,-34.180,-35.645,-31.250,-25.879,0
1594927676.844,-30.273,-31.250,-24.902,-27.832,0
1594927676.848,-31.738,-37.598,-33.203,-43.457,0
1594927676.852,-44.434,-42.480,-38.086,-40.039,0
1594927676.864,-53.223,-39.551,-42.969,-38.574,0
1594927676.868,-42.969,-35.645,-45.898,-39.062,0
1594927676.872,-36.133,-31.738,-34.668,-37.109,0
1594927676.876,-34.668,-32.227,-35.156,-38.086,0
1594927676.880,-32.715,-29.297,-38.086,-47.852,0
1594927676.884,-30.762,-32.227,-35.156,-39.062,0
1594927676.888,-38.574,-41.504,-33.691,-21.973,0
1594927676.891,-41.504,-42.480,-31.250,-21.484,0
1594927676.895,-29.297,-36.621,-33.203,-29.297,0
1594927676.899,-30.273,-32.227,-33.691,-31.738,0
1594927676.903,-29.297,-42.480,-29.297,-24.902,0
1594927676.907,-27.344,-41.016,-29.297,-32.227,0
1594927676.901,-38.574,-36.133,-31.738,-39.551,0
1594927676.905,-37.109,-35.645,-32.715,-47.852,0
1594927676.909,-33.203,-36.133,-32.715,-52.734,0
1594927676.913,-36.133,-42.480,-32.227,-56.641,0
1594927676.917,-36.133,-39.551,-27.344,-59.082,0
1594927676.921,-33.691,-34.180,-27.344,-44.922,0
1594927676.925,-40.527,-36.133,-27.344,-35.156,0
1594927676.928,-40.527,-34.668,-26.855,-30.762,0
1594927676.932,-30.762,-30.762,-29.785,-23.926,0
1594927676.936,-26.855,-33.203,-25.391,-28.809,0
1594927676.940,-26.367,-29.297,-27.832,-37.109,0
1594927676.944,-22.461,-27.832,-33.691,-37.109,0
1594927676.957,-20.020,-35.156,-33.691,-45.410,0
1594927676.961,-41.504,-36.621,-36.133,-50.293,0
1594927676.965,-37.598,-34.668,-30.273,-36.133,0
1594927676.969,-20.508,-35.156,-26.855,-31.738,0
1594927676.973,-42.969,-36.133,-23.926,-35.156,0
1594927676.977,-71.777,-39.062,-28.320,-24.902,0
1594927676.981,-60.547,-39.551,-26.367,-24.902,0
1594927676.984,-44.922,-44.434,-12.207,-33.203,0
1594927676.988,-39.062,-42.969,-16.113,-34.180,0
1594927676.992,-36.621,-40.039,-22.461,-33.203,0
1594927676.996,-35.645,-35.645,-20.996,-32.715,0
1594927677.000,-29.785,-23.926,-15.625,-32.715,0
1594927676.995,-26.855,-14.160,-14.160,-32.227,0
1594927676.999,-27.832,-18.555,-22.949,-41.504,0
1594927677.003,-37.598,-30.273,-29.297,-44.922,0
1594927677.007,-42.969,-33.691,-29.297,-36.621,0
1594927677.011,-36.621,-36.621,-26.367,-31.250,0
1594927677.015,-23.926,-37.109,-31.250,-28.320,0
1594927677.019,-24.414,-27.832,-27.344,-25.879,0
1594927677.022,-26.367,-24.902,-25.879,-39.551,0
1594927677.026,-34.180,-30.273,-29.785,-41.016,0
1594927677.030,-48.828,-30.762,-25.879,-29.297,0
1594927677.034,-55.664,-29.785,-29.297,-28.809,0
1594927677.038,-52.734,-27.832,-31.250,-27.344,0
1594927677.051,-45.898,-27.344,-31.738,-26.367,0
1594927677.055,-42.969,-32.227,-30.273,-14.160,0
1594927677.059,-40.039,-31.738,-21.973,-11.230,0
1594927677.063,-32.227,-31.738,-25.391,-24.414,0
1594927677.067,-31.250,-32.715,-32.715,-35.156,0
1594927677.071,-28.320,-33.203,-33.203,-42.480,0
1594927677.075,-27.344,-32.227,-36.621,-43.457,0
1594927677.078,-34.180,-36.621,-40.527,-45.410,0
1594927677.082,-34.180,-43.945,-39.551,-46.387,0
1594927677.086,-43.945,-34.668,-34.668,-43.457,0
1594927677.090,-60.547,-30.762,-29.785,-31.738,0
1594927677.094,-49.805,-29.785,-33.691,-31.250,0
1594927677.089,-57.129,-33.691,-38.574,-41.504,0
1594927677.093,-58.105,-39.062,-27.832,-39.551,0
1594927677.097,-45.898,-34.668,-22.949,-28.320,0
1594927677.101,-51.758,-34.668,-28.320,-28.320,0
1594927677.105,-47.852,-36.133,-24.414,-30.762,0
1594927677.109,-40.527,-31.250,-27.832,-33.691,0
1594927677.113,-30.273,-20.508,-31.738,-38.086,0
1594927677.116,-23.926,-21.973,-29.297,-34.180,0
1594927677.120,-21.484,-23.926,-35.156,-39.062,0
1594927677.124,-32.715,-21.484,-32.227,-39.551,0
1594927677.128,-43.457,-21.484,-29.785,-32.715,0
1594927677.132,-45.898,-20.508,-32.715,-36.621,0
1594927677.145,-45.410,-25.879,-28.320,-28.809,0
1594927677.149,-43.945,-32.715,-20.996,-20.996,0
1594927677.153,-40.039,-30.273,-23.438,-22.461,0
1594927677.157,-35.156,-29.297,-28.320,-22.461,0
1594927677.161,-27.344,-31.250,-30.762,-27.344,0
1594927677.165,-23.438,-31.250,-31.738,-28.809,1
1594927677.169,-21.484,-19.043,-30.762,-29.297,0
1594927677.172,-18.555,-7.812,-30.273,-41.504,0
1594927677.176,-16.113,-15.625,-29.785,-45.898,0
1594927677.180,-16.113,-19.043,-26.367,-41.504,0
1594927677.184,-14.160,-23.926,-29.297,-41.016,0
1594927677.188,-18.066,-27.344,-28.320,-42.969,0
1594927677.182,-20.020,-29.297,-23.926,-40.527,0
1594927677.186,-21.973,-27.832,-26.855,-34.180,0
1594927677.190,-19.531,-25.391,-31.738,-37.109,0
1594927677.194,-26.855,-24.414,-29.785,-40.527,0
1594927677.198,-38.086,-20.508,-24.414,-33.691,0
1594927677.202,-35.645,-21.484,-30.762,-34.668,0
1594927677.206,-37.109,-22.461,-44.922,-40.039,0
1594927677.209,-41.992,-24.902,-42.969,-41.992,0
1594927677.213,-40.527,-33.691,-38.086,-41.016,0
1594927677.217,-37.598,-31.738,-39.551,-36.133,0
1594927677.221,-32.227,-28.809,-30.273,-35.645,0
1594927677.225,-29.785,-30.273,-24.414,-36.133,0
1594927677.239,-41.016,-25.879,-28.320,-30.762,0
1594927677.243,-45.898,-28.320,-30.273,-31.738,0
1594927677.247,-33.203,-30.762,-29.785,-31.250,0
1594927677.251,-30.762,-30.273,-31.738,-34.668,0
1594927677.255,-42.480,-36.621,-29.297,-37.598,0
1594927677.259,-35.645,-40.527,-34.180,-33.203,0
1594927677.263,-30.273,-40.039,-36.133,-30.762,0
1594927677.266,-35.156,-42.480,-30.273,-34.180,0
1594927677.270,-45.898,-42.969,-29.297,-33.203,0
1594927677.274,-47.852,-38.086,-30.762,-33.691,0
1594927677.278,-46.387,-39.062,-31.738,-37.109,0
1594927677.282,-44.922,-35.645,-24.902,-38.086,0
1594927677.277,-34.668,-28.320,-22.461,-39.551,0
1594927677.281,-33.203,-32.715,-27.832,-37.109,0
1594927677.285,-39.551,-38.086,-35.156,-34.180,0
1594927677.289,-34.180,-36.621,-38.574,-33.691,0
1594927677.293,-25.879,-29.785,-29.785,-34.668,0
1594927677.297,-22.949,-31.250,-30.273,-31.738,0
1594927677.301,-33.203,-29.297,-34.668,-30.273,0
1594927677.304,-33.203,-20.996,-28.809,-34.668,0
1594927677.308,-33.691,-24.902,-27.344,-33.203,0
1594927677.312,-38.574,-30.762,-28.809,-31.738,0
1594927677.316,-34.668,-30.273,-34.668,-50.293,0
1594927677.320,-38.574,-23.926,-28.320,-45.410,0
1594927677.332,-41.504,-23.926,-24.902,-30.762,0
1594927677.336,-50.781,-33.203,-49.316,-20.996,0
1594927677.340,-61.523,-33.691,-56.152,-16.113,0
1594927677.344,-52.246,-33.203,-39.551,-23.438,0
1594927677.348,-44.922,-35.156,-36.621,-31.738,0
1594927677.352,-44.922,-36.621,-36.621,-33.203,0
1594927677.356,-41.016,-35.645,-37.109,-27.344,0
1594927677.359,-48.828,-33.691,-34.668,-41.016,0
1594927677.363,-46.387,-33.203,-34.180,-43.945,0
1594927677.367,-40.039,-36.133,-34.668,-31.738,0
1594927677.371,-41.992,-37.598,-32.227,-38.574,0
1594927677.375,-37.109,-33.203,-28.320,-40.527,0
1594927677.370,-38.574,-27.344,-27.344,-30.762,0
1594927677.374,-34.180,-24.902,-27.832,-25.391,0
1594927677.378,-31.738,-22.461,-23.926,-27.832,0
1594927677.382,-36.133,-26.855,-26.855,-25.879,0
1594927677.386,-46.387,-35.645,-33.691,-28.320,0
1594927677.390,-43.945,-37.598,-32.227,-28.809,0
1594927677.394,-41.016,-35.645,-27.832,-25.391,0
1594927677.397,-44.922,-33.203,-28.809,-35.156,0
1594927677.401,-45.898,-33.691,-38.086,-31.250,0
1594927677.405,-59.082,-32.715,-35.645,-21.973,0
1594927677.409,-65.430,-25.879,-28.809,-32.715,0
1594927677.413,-61.035,-25.879,-31.738,-39.062,0
1594927677.426,-51.758,-29.785,-37.598,-36.133,0
1594927677.430,-45.898,-34.668,-37.598,-30.273,0
1594927677.434,-48.340,-30.762,-33.203,-34.668,0
1594927677.438,-35.645,-32.227,-31.250,-37.109,0
1594927677.442,-37.109,-36.133,-33.203,-33.203,0
1594927677.446,-46.387,-34.180,-34.180,-39.062,0
1594927677.450,-37.598,-31.738,-30.762,-37.109,0
1594927677.453,-28.320,-22.949,-25.879,-28.320,0
1594927677.457,-29.297,-30.273,-21.973,-34.180,0
1594927677.461,-30.273,-27.344,-30.273,-34.668,0
1594927677.465,-23.926,-21.484,-36.133,-29.785,0
1594927677.469,-19.043,-30.762,-31.250,-34.668,0
1594927677.464,-23.438,-37.598,-30.762,-38.086,0
1594927677.468,-33.691,-40.039,-30.762,-43.457,0
1594927677.472,-39.062,-36.133,-29.297,-41.016,0
1594927677.476,-36.621,-32.715,-37.598,-36.621,0
1594927677.480,-29.297,-32.227,-34.668,-41.016,0
1594927677.484,-30.273,-31.738,-53.223,-38.086,0
1594927677.488,-34.180,-24.902,-66.406,-31.738,0
1594927677.491,-43.945,-21.973,-53.223,-38.086,0
1594927677.495,-51.758,-26.855,-52.734,-32.715,0
1594927677.499,-44.922,-21.973,-42.480,-24.902,0
1594927677.503,-34.180,-23.438,-34.180,-23.438,0
1594927677.507,-28.809,-30.273,-39.062,-22.949,0
1594927677.520,-28.320,-29.785,-40.039,-28.320,0
1594927677.524,-34.668,-31.250,-44.434,-25.879,0
1594927677.528,-37.598,-34.668,-44.922,-29.785,0
1594927677.532,-28.320,-44.922,-31.738,-38.086,0
1594927677.536,-20.020,-41.016,-32.227,-35.156,0
1594927677.540,-19.043,-34.180,-35.645,-36.621,0
1594927677.544,-22.949,-43.457,-35.156,-31.738,0
1594927677.547,-24.414,-42.480,-35.156,-36.621,0
1594927677.551,-20.996,-43.945,-37.598,-42.969,0
1594927677.555,-20.508,-50.293,-41.016,-37.598,0
1594927677.559,-23.926,-45.898,-45.898,-31.738,0
1594927677.563,-26.855,-44.434,-40.039,-35.156,0
1594927677.559,-26.367,-62.012,-33.691,-42.480,0
1594927677.563,-34.180,-68.848,-38.086,-40.039,0
1594927677.567,-47.363,-60.547,-32.715,-38.086,0
1594927677.571,-49.805,-53.223,-40.039,-37.598,0
1594927677.575,-44.434,-46.387,-40.039,-35.156,0
1594927677.579,-41.992,-42.969,-29.785,-35.156,0
1594927677.583,-52.246,-47.852,-25.879,-34.180,0
1594927677.586,-57.617,-56.152,-22.949,-37.109,0
1594927677.590,-48.828,-55.664,-31.738,-32.715,0
1594927677.594,-42.969,-43.945,-31.250,-30.762,0
1594927677.598,-41.504,-42.969,-29.297,-41.992,0
1594927677.602,-38.574,-41.504,-29.297,-41.504,0
1594927677.614,-29.785,-37.598,-28.809,-20.020,0
1594927677.618,-36.621,-37.109,-32.227,-17.090,0
1594927677.622,-44.434,-35.645,-25.879,-22.949,0
1594927677.626,-43.457,-32.227,-25.391,-15.137,0
1594927677.630,-43.945,-27.344,-25.879,-17.090,0
1594927677.634,-38.574,-33.203,-23.926,-24.414,0
1594927677.638,-32.227,-35.645,-28.809,-22.461,0
1594927677.641,-35.645,-28.809,-27.832,-25.879,0
1594927677.645,-33.203,-32.715,-28.809,-34.668,0
1594927677.649,-27.344,-34.180,-30.762,-32.227,0
1594927677.653,-26.855,-34.668,-34.180,-29.785,0
1594927677.657,-30.762,-36.621,-29.297,-29.785,0
1594927677.651,-31.738,-36.621,-24.902,-26.855,0
1594927677.655,-31.738,-36.621,-28.809,-38.086,0
1594927677.659,-33.203,-37.598,-23.926,-44.922,0
1594927677.663,-36.621,-38.086,-24.902,-33.203,0
1594927677.667,-40.527,-35.645,-22.949,-23.926,0
1594927677.671,-41.504,-35.156,-22.949,-31.250,0
1594927677.675,-43.457,-38.086,-35.645,-38.086,0
1594927677.678,-45.898,-39.062,-54.199,-37.109,0
1594927677.682,-39.551,-34.668,-58.105,-37.598,0
1594927677.686,-27.832,-34.180,-34.180,-40.527,0
1594927677.690,-36.621,-39.062,-19.043,-42.480,0
1594927677.694,-41.504,-35.645,-25.879,-38.086,0
1594927677.707,-42.969,-40.527,-29.785,-43.457,0
1594927677.711,-44.922,-43.945,-27.344,-41.992,0
1594927677.715,-41.992,-33.691,-26.855,-45.410,0
1594927677.719,-41.504,-31.738,-31.738,-52.734,0
1594927677.723,-44.434,-29.785,-29.297,-50.293,0
1594927677.727,-43.457,-29.785,-20.020,-42.480,0
1594927677.731,-36.133,-33.203,-21.484,-38.086,0
1594927677.734,-35.645,-15.137,-26.367,-35.645,0
1594927677.738,-38.086,-18.066,-25.879,-36.621,0
1594927677.742,-39.551,-27.344,-26.855,-38.086,0
1594927677.746,-34.668,-23.438,-28.320,-35.156,0
1594927677.750,-33.203,-26.367,-22.461,-28.320,0
1594927677.745,-39.062,-26.855,-20.996,-22.461,0
1594927677.749,-37.109,-26.367,-23.926,-28.320,0
1594927677.753,-37.109,-30.762,-24.414,-34.668,0
1594927677.757,-34.668,-33.203,-24.414,-27.832,0
1594927677.761,-25.391,-32.227,-26.855,-26.855,0
1594927677.765,-20.508,-33.203,-29.785,-26.367,0
1594927677.769,-20.020,-37.598,-27.832,-27.344,0
1594927677.772,-18.066,-38.086,-25.391,-29.297,0
1594927677.776,-17.578,-37.598,-32.227,-31.250,0
1594927677.780,-37.109,-29.297,-32.715,-35.156,0
1594927677.784,-45.410,-18.066,-28.320,-27.832,0
1594927677.788,-43.945,-14.160,-25.879,-23.926,0
1594927677.802,-41.992,-15.625,-21.973,-25.391,0
1594927677.806,-37.598,-23.926,-24.902,-31.738,0
1594927677.810,-41.992,-21.973,-25.879,-38.574,0
1594927677.814,-38.086,-20.020,-25.879,-38.086,0
1594927677.818,-39.551,-24.414,-23.438,-25.391,0
1594927677.822,-39.551,-29.297,-28.320,-27.832,0
1594927677.826,-44.922,-29.785,-34.668,-43.945,0
1594927677.829,-47.852,-23.926,-27.832,-41.504,0
1594927677.833,-41.992,-20.020,-27.344,-39.551,0
1594927677.837,-36.621,-17.578,-27.832,-42.480,0
1594927677.841,-40.527,-22.461,-27.344,-45.898,0
1594927677.845,-41.016,-19.043,-29.297,-43.457,0
1594927677.839,-32.227,-9.766,-28.320,-41.016,0
1594927677.843,-28.809,-13.184,-24.902,-41.992,0
1594927677.847,-28.320,-15.625,-26.367,-38.086,0
1594927677.851,-23.926,-17.090,-31.250,-34.668,0
1594927677.855,-16.113,-20.508,-26.855,-32.715,0
1594927677.859,-18.555,-21.484,-28.809,-32.227,0
1594927677.863,-30.273,-20.508,-31.738,-34.668,0
1594927677.866,-32.715,-21.484,-29.297,-29.785,0
1594927677.870,-33.691,-22.949,-30.273,-27.344,0
1594927677.874,-29.297,-21.973,-25.879,-31.250,0
1594927677.878,-34.668,-23.438,-21.973,-34.180,0
1594927677.882,-49.805,-23.438,-23.926,-36.133,0
1594927677.895,-48.828,-25.391,-25.391,-36.133,0
1594927677.899,-43.945,-25.391,-27.832,-37.109,0
1594927677.903,-38.086,-14.160,-24.414,-34.668,0
1594927677.907,-29.297,-15.625,-25.391,-26.367,0
1594927677.911,-33.203,-22.461,-24.414,-33.691,0
1594927677.915,-33.203,-25.879,-27.344,-38.574,0
1594927677.919,-31.250,-28.809,-32.227,-31.738,0
1594927677.922,-30.762,-31.250,-26.855,-29.785,0
1594927677.926,-22.949,-27.344,-27.344,-24.902,0
1594927677.930,-25.391,-27.344,-25.879,-23.926,0
1594927677.934,-32.715,-20.996,-29.785,-28.809,0
1594927677.938,-30.273,-11.230,-35.156,-27.832,0
1594927677.932,-33.691,-14.160,-33.203,-36.133,0
1594927677.936,-46.387,-30.273,-31.738,-46.387,0
1594927677.940,-45.410,-34.180,-27.832,-43.945,0
1594927677.944,-45.410,-29.785,-20.508,-47.363,0
1594927677.948,-42.480,-29.297,-23.926,-43.457,0
1594927677.952,-34.180,-31.738,-30.762,-38.574,0
1594927677.956,-34.668,-30.273,-34.668,-41.016,0
1594927677.959,-35.645,-39.551,-24.902,-35.645,0
1594927677.963,-43.945,-50.781,-24.414,-32.715,0
1594927677.967,-53.223,-53.711,-24.902,-35.645,0
1594927677.971,-54.688,-43.457,-23.926,-39.062,0
1594927677.975,-46.875,-38.574,-20.508,-43.457,0
1594927677.990,-36.133,-42.969,-16.602,-32.715,0
1594927677.994,-41.992,-41.016,-22.949,-22.949,0
1594927677.998,-41.504,-41.504,-21.973,-27.344,0
1594927678.002,-30.762,-44.922,-22.949,-36.133,0
1594927678.006,-25.879,-42.480,-30.762,-43.457,0
1594927678.010,-27.344,-44.922,-33.691,-46.875,0
1594927678.014,-31.250,-45.410,-34.668,-41.504,2
1594927678.017,-32.715,-36.133,-28.809,-36.133,0
1594927678.021,-47.363,-32.715,-26.367,-36.621,0
1594927678.025,-60.547,-35.645,-31.250,-35.645,0
1594927678.029,-57.129,-37.109,-34.180,-28.320,0
1594927678.033,-52.246,-38.086,-28.320,-26.855,0
1594927678.027,-51.758,-42.480,-30.273,-30.273,0
1594927678.031,-45.410,-42.480,-30.762,-22.461,0
1594927678.035,-35.645,-40.527,-32.715,-15.625,0
1594927678.039,-34.668,-43.457,-32.227,-18.066,0
1594927678.043,-37.109,-43.945,-28.320,-15.137,0
1594927678.047,-35.645,-41.504,-28.809,-11.719,0
1594927678.051,-31.738,-40.527,-36.133,-17.578,0
1594927678.054,-25.391,-40.527,-36.621,-25.391,0
1594927678.058,-24.902,-40.527,-38.574,-16.113,0
1594927678.062,-30.273,-34.180,-32.227,-9.277,0
1594927678.066,-35.645,-30.762,-28.320,-23.926,0
1594927678.070,-38.086,-31.738,-29.297,-24.414,0
1594927678.082,-37.109,-37.109,-36.133,-25.391,0
1594927678.086,-37.598,-35.645,-43.945,-28.809,0
1594927678.090,-34.668,-25.391,-34.180,-32.227,0
1594927678.094,-35.645,-22.949,-28.320,-37.109,0
1594927678.098,-33.203,-25.879,-22.461,-30.762,0
1594927678.102,-29.785,-29.297,-24.414,-33.691,0
1594927678.106,-34.668,-32.715,-20.508,-35.156,0
1594927678.109,-30.762,-33.203,-14.160,-34.668,0
1594927678.113,-20.508,-31.738,-19.531,-36.621,0
1594927678.117,-24.414,-32.227,-20.508,-38.086,0
1594927678.121,-29.297,-29.785,-23.926,-43.945,0
1594927678.125,-26.367,-26.855,-26.367,-46.875,0
1594927678.120,-29.297,-21.484,-21.973,-43.945,0
1594927678.124,-23.926,-24.902,-27.832,-43.457,0
1594927678.128,-12.207,-28.809,-30.762,-35.156,0
1594927678.132,-16.602,-33.691,-34.180,-26.855,0
1594927678.136,-28.320,-37.109,-41.992,-36.133,0
1594927678.140,-32.227,-29.785,-33.203,-38.574,0
1594927678.144,-27.832,-22.949,-24.414,-30.762,0
1594927678.147,-29.785,-29.785,-21.973,-22.461,0
1594927678.151,-40.527,-33.203,-23.926,-18.555,0
1594927678.155,-39.062,-30.762,-23.926,-14.648,0
1594927678.159,-35.645,-23.438,-20.996,-15.625,0
1594927678.163,-34.180,-19.531,-21.973,-32.227,0
1594927678.176,-30.273,-25.391,-31.738,-40.039,0
1594927678.180,-35.645,-33.691,-34.668,-46.387,0
1594927678.184,-36.621,-32.227,-21.973,-63.965,0
1594927678.188,-36.133,-33.203,-21.973,-54.688,0
1594927678.192,-33.691,-35.645,-26.855,-46.875,0
1594927678.196,-21.973,-33.691,-27.832,-47.852,0
1594927678.200,-13.672,-37.109,-30.762,-43.945,0
1594927678.203,-15.625,-34.668,-25.391,-49.316,0
1594927678.207,-38.086,-30.762,-22.949,-39.551,0
1594927678.211,-54.688,-31.250,-26.855,-26.367,0
1594927678.215,-56.152,-35.645,-23.438,-34.668,0
1594927678.219,-57.617,-31.250,-21.484,-42.480,0
1594927678.214,-42.969,-24.902,-29.785,-35.645,0
1594927678.218,-35.645,-41.992,-25.391,-33.203,0
1594927678.222,-43.945,-43.457,-31.738,-39.551,0
1594927678.226,-44.434,-25.391,-35.156,-35.645,0
1594927678.230,-39.062,-27.344,-25.879,-25.879,0
1594927678.234,-39.062,-37.598,-27.344,-17.578,0
1594927678.238,-37.598,-42.969,-29.785,-18.066,0
1594927678.241,-37.598,-42.480,-30.762,-19.043,0
1594927678.245,-37.109,-42.480,-36.133,-22.461,0
1594927678.249,-35.156,-41.992,-29.297,-19.531,0
1594927678.253,-35.645,-42.480,-20.020,-12.207,0
1594927678.257,-34.668,-31.738,-23.438,-20.508,0
1594927678.270,-35.645,-31.250,-28.320,-25.879,0
1594927678.274,-39.062,-39.062,-30.762,-24.902,0
1594927678.278,-39.062,-32.227,-26.855,-28.320,0
1594927678.282,-37.598,-30.762,-31.738,-35.156,0
1594927678.286,-35.645,-39.551,-32.715,-34.180,0
1594927678.290,-33.691,-39.551,-30.273,-31.738,0
1594927678.294,-41.504,-36.621,-31.250,-30.273,0
1594927678.297,-45.898,-39.551,-29.785,-39.062,0
1594927678.301,-41.016,-43.457,-32.227,-40.527,0
1594927678.305,-55.176,-43.945,-32.715,-36.621,0
1594927678.309,-61.523,-41.016,-33.203,-36.133,0
1594927678.313,-42.969,-38.086,-32.227,-33.203,0
1594927678.307,-28.320,-34.668,-24.414,-32.715,0
1594927678.311,-36.621,-30.273,-24.414,-33.203,0
1594927678.315,-41.016,-25.879,-26.855,-22.461,0
1594927678.319,-31.738,-27.344,-25.391,-23.926,0
1594927678.323,-41.504,-28.320,-23.438,-36.133,0
1594927678.327,-35.156,-30.762,-23.926,-38.086,0
1594927678.331,-23.438,-35.156,-22.461,-34.180,0
1594927678.334,-34.668,-37.109,-25.391,-39.062,0
1594927678.338,-28.809,-35.645,-27.832,-30.273,0
1594927678.342,-25.391,-32.715,-18.555,-18.555,0
1594927678.346,-36.133,-32.715,-23.438,-25.391,0
1594927678.350,-35.645,-29.785,-28.320,-27.344,0
1594927678.364,-32.715,-27.344,-21.973,-30.273,0
1594927678.368,-21.973,-25.391,-25.391,-28.809,0
1594927678.372,-24.902,-24.902,-25.391,-32.715,0
1594927678.376,-36.133,-20.996,-26.367,-39.062,0
1594927678.380,-40.527,-19.531,-34.180,-40.527,0
1594927678.384,-44.922,-27.832,-38.574,-41.992,0
1594927678.388,-44.434,-28.320,-30.762,-39.062,0
1594927678.391,-45.410,-27.832,-24.902,-47.363,0
1594927678.395,-44.434,-36.133,-26.855,-54.199,0
1594927678.399,-44.922,-34.180,-27.344,-43.945,0
1594927678.403,-42.969,-29.785,-29.785,-39.062,0
1594927678.407,-38.574,-31.250,-39.551,-45.410,0
1594927678.401,-37.598,-34.180,-33.691,-48.340,0
1594927678.405,-40.527,-32.227,-25.391,-49.805,0
1594927678.409,-40.039,-33.203,-26.855,-41.992,0
1594927678.413,-35.645,-30.273,-25.879,-28.320,0
1594927678.417,-28.809,-24.902,-21.973,-32.227,0
1594927678.421,-22.949,-29.297,-24.414,-38.574,0
1594927678.425,-35.156,-41.992,-23.926,-30.762,0
1594927678.428,-49.316,-35.156,-21.973,-19.531,0
1594927678.432,-47.852,-33.203,-28.809,-27.344,0
1594927678.436,-42.969,-32.715,-21.484,-23.438,0
1594927678.440,-33.691,-21.484,-16.113,-10.742,0
1594927678.444,-34.668,-19.043,-22.949,-21.973,0
1594927678.457,-43.945,-24.414,-31.738,-20.020,0
1594927678.461,-38.086,-24.902,-35.645,-18.555,0
1594927678.465,-36.621,-22.461,-30.273,-30.762,0
1594927678.469,-40.039,-26.855,-28.320,-30.273,0
1594927678.473,-30.273,-24.902,-35.645,-23.926,0
1594927678.477,-30.762,-31.738,-40.527,-26.855,0
1594927678.481,-44.434,-36.133,-27.344,-30.273,0
1594927678.484,-40.527,-32.227,-18.555,-33.691,0
1594927678.488,-25.879,-32.227,-29.785,-34.668,0
1594927678.492,-29.785,-32.715,-33.203,-34.668,0
1594927678.496,-23.926,-32.715,-28.809,-33.203,0
1594927678.500,-19.531,-32.227,-24.414,-31.250,0
1594927678.497,-24.902,-30.762,-23.438,-32.715,0
1594927678.501,-24.414,-28.320,-23.926,-31.250,0
1594927678.505,-36.621,-31.738,-19.531,-27.832,0
1594927678.509,-41.992,-39.062,-24.902,-38.574,0
1594927678.513,-44.922,-42.480,-24.902,-45.410,0
1594927678.517,-46.875,-29.785,-23.926,-36.133,0
1594927678.521,-45.898,-10.742,-20.020,-31.250,0
1594927678.524,-53.711,-12.207,-18.555,-32.227,0
1594927678.528,-47.363,-17.578,-24.902,-41.504,0
1594927678.532,-45.898,-17.090,-26.367,-49.805,0
1594927678.536,-53.711,-23.926,-26.855,-37.109,0
1594927678.540,-50.781,-27.344,-25.879,-36.621,0
1594927678.552,-54.688,-25.391,-29.785,-43.945,0
1594927678.556,-52.246,-17.090,-32.715,-30.273,0
1594927678.560,-41.504,-1.953,-20.996,-27.344,0
1594927678.564,-45.898,1.465,-14.648,-32.227,0
1594927678.568,-39.551,-7.812,-20.020,-35.645,0
1594927678.572,-31.738,-22.461,-17.578,-29.297,0
1594927678.576,-30.762,-34.180,-12.695,-20.508,0
1594927678.579,-30.273,-41.016,-15.137,-26.367,0
1594927678.583,-33.203,-40.039,-20.020,-39.551,0
1594927678.587,-29.785,-33.691,-15.137,-38.574,0
1594927678.591,-23.438,-36.133,-16.602,-32.227,0
1594927678.595,-26.367,-38.574,-20.020,-35.645,0
1594927678.589,-30.762,-36.133,-17.578,-47.852,0
1594927678.593,-33.203,-38.086,-27.344,-43.945,0
1594927678.597,-34.668,-41.016,-25.879,-33.691,0
1594927678.601,-33.203,-34.668,-23.438,-34.668,0
1594927678.605,-27.832,-33.691,-28.809,-31.250,0
1594927678.609,-21.973,-31.738,-24.902,-31.250,0
1594927678.613,-22.949,-24.902,-21.973,-31.250,0
1594927678.616,-25.879,-19.531,-24.902,-23.926,0
1594927678.620,-27.344,-25.391,-33.691,-17.578,0
1594927678.624,-32.227,-27.344,-36.133,-23.438,0
1594927678.628,-25.879,-25.391,-32.227,-31.250,0
1594927678.632,-14.648,-25.879,-38.086,-28.809,0
1594927678.645,-14.648,-22.461,-43.945,-26.367,0
1594927678.649,-17.578,-23.926,-41.992,-25.391,0
1594927678.653,-25.879,-28.809,-35.156,-23.438,0
1594927678.657,-31.250,-29.297,-31.738,-28.809,0
1594927678.661,-34.668,-27.344,-32.715,-39.551,0
1594927678.665,-41.016,-29.297,-34.668,-43.945,0
1594927678.669,-50.293,-28.320,-33.203,-39.062,0
1594927678.672,-57.129,-28.320,-33.203,-49.805,0
1594927678.676,-46.387,-28.809,-30.762,-45.410,0
1594927678.680,-42.480,-27.832,-26.367,-29.297,0
1594927678.684,-48.340,-34.180,-30.273,-35.156,0
1594927678.688,-43.945,-38.086,-32.227,-34.180,0
1594927678.682,-39.551,-33.203,-29.297,-28.320,0
1594927678.686,-36.133,-27.344,-26.855,-28.809,0
1594927678.690,-43.945,-26.855,-28.320,-27.832,0
1594927678.694,-48.828,-25.879,-30.273,-23.926,0
1594927678.698,-48.340,-24.414,-29.297,-25.879,0
1594927678.702,-41.016,-22.949,-31.250,-43.457,0
1594927678.706,-28.809,-20.508,-30.273,-48.340,0
1594927678.709,-23.926,-19.043,-29.785,-51.270,0
1594927678.713,-22.461,-20.508,-36.133,-51.758,0
1594927678.717,-32.715,-18.066,-35.156,-46.875,0
1594927678.721,-39.062,-25.391,-32.715,-44.922,0
1594927678.725,-40.039,-28.809,-27.832,-37.109,0
1594927678.739,-48.340,-27.832,-26.855,-22.461,0
1594927678.743,-51.758,-33.691,-29.785,-14.160,0
1594927678.747,-58.594,-32.715,-23.438,-18.555,0
1594927678.751,-55.176,-31.250,-22.461,-17.578,0
1594927678.755,-44.434,-32.715,-27.832,-19.043,0
1594927678.759,-44.434,-32.715,-30.762,-28.809,0
1594927678.763,-41.992,-30.762,-33.203,-30.762,0
1594927678.766,-45.410,-31.738,-27.832,-27.832,0
1594927678.770,-42.480,-37.109,-21.484,-24.902,0
1594927678.774,-38.086,-28.320,-27.344,-23.438,0
1594927678.778,-42.969,-32.227,-34.668,-22.949,0
1594927678.782,-45.410,-37.598,-27.832,-30.762,0
1594927678.777,-40.527,-31.738,-22.949,-34.180,0
1594927678.781,-41.016,-29.297,-26.367,-32.227,0
1594927678.785,-41.016,-27.344,-25.391,-31.250,0
1594927678.789,-46.387,-29.785,-28.809,-33.203,0
1594927678.793,-54.688,-30.273,-27.344,-36.133,0
1594927678.797,-55.176,-33.203,-20.996,-32.715,0
1594927678.801,-53.223,-42.969,-19.531,-35.645,0
1594927678.804,-44.434,-35.645,-26.855,-41.016,0
1594927678.808,-36.621,-31.250,-36.133,-39.062,0
1594927678.812,-29.297,-33.203,-31.738,-33.691,0
1594927678.816,-31.250,-27.344,-27.344,-39.062,0
1594927678.820,-45.898,-37.109,-22.949,-44.922,0
1594927678.832,-51.270,-54.199,-22.949,-41.504,2
1594927678.836,-53.223,-49.316,-29.785,-37.109,0
1594927678.840,-52.246,-26.855,-24.414,-34.180,0
1594927678.844,-46.387,-24.902,-21.973,-31.738,0
1594927678.848,-39.551,-32.227,-22.949,-37.598,0
1594927678.852,-35.156,-30.273,-23.438,-28.320,0
1594927678.856,-34.668,-30.762,-28.809,-25.391,0
1594927678.859,-36.621,-30.273,-25.879,-36.133,0
1594927678.863,-37.598,-32.715,-26.855,-29.785,0
1594927678.867,-41.992,-37.109,-41.016,-31.250,0
1594927678.871,-40.039,-37.109,-41.504,-33.203,0
1594927678.875,-45.410,-39.062,-32.715,-36.133,0
1594927678.870,-49.316,-40.527,-31.250,-39.062,0
1594927678.874,-41.992,-37.109,-35.156,-36.621,0
1594927678.878,-40.039,-40.039,-27.832,-36.133,0
1594927678.882,-41.504,-41.016,-26.367,-34.668,0
1594927678.886,-43.945,-37.598,-26.367,-35.645,0
1594927678.890,-37.598,-40.039,-27.832,-36.621,0
1594927678.894,-26.367,-39.551,-32.227,-33.691,0
1594927678.897,-27.832,-38.086,-34.668,-41.992,0
1594927678.901,-27.344,-40.039,-38.574,-37.109,0
1594927678.905,-26.367,-33.203,-27.344,-20.020,0
1594927678.909,-24.902,-32.227,-22.461,-14.648,0
1594927678.913,-29.297,-29.297,-24.902,-20.020,0
1594927678.926,-28.809,-26.367,-27.344,-31.738,0
1594927678.930,-27.344,-35.645,-28.320,-31.738,0
1594927678.934,-30.273,-30.762,-26.367,-26.855,0
1594927678.938,-26.367,-25.391,-26.367,-31.738,0
1594927678.942,-25.879,-24.414,-26.367,-34.668,0
1594927678.946,-32.715,-22.949,-33.203,-39.551,0
1594927678.950,-37.598,-28.809,-38.574,-36.133,0
1594927678.953,-39.551,-29.297,-24.414,-35.645,0
1594927678.957,-32.715,-32.715,-17.090,-35.156,0
1594927678.961,-35.156,-31.250,-23.926,-38.574,0
1594927678.965,-35.645,-27.344,-24.902,-49.805,0
1594927678.969,-27.832,-25.391,-18.555,-33.203,0
1594927678.964,-24.902,-22.949,-19.531,-24.414,0
1594927678.968,-28.320,-15.625,-25.391,-31.250,0
1594927678.972,-38.574,-19.531,-26.367,-33.691,0
1594927678.976,-38.574,-30.273,-26.367,-35.645,0
1594927678.980,-31.250,-26.855,-26.367,-40.527,0
1594927678.984,-36.133,-23.438,-33.203,-46.387,0
1594927678.988,-40.527,-19.531,-31.738,-34.180,0
1594927678.991,-37.598,-14.160,-29.297,-30.273,0
1594927678.995,-35.645,-16.602,-33.203,-32.227,0
1594927678.999,-38.574,-19.043,-32.227,-31.250,0
1594927679.003,-38.574,-22.949,-25.391,-34.668,0
1594927679.007,-41.016,-32.715,-21.973,-31.738,0
1594927679.020,-42.480,-34.180,-29.785,-31.250,0
1594927679.024,-41.992,-32.227,-33.691,-38.574,0
1594927679.028,-39.551,-27.344,-25.879,-33.203,0
1594927679.032,-40.039,-26.855,-21.973,-27.344,0
1594927679.036,-45.410,-29.297,-27.344,-33.203,0
1594927679.040,-41.016,-28.320,-31.738,-34.668,0
1594927679.044,-48.340,-30.273,-34.668,-25.391,0
1594927679.047,-52.734,-35.645,-28.320,-25.879,0
1594927679.051,-37.598,-29.297,-26.855,-25.879,0
1594927679.055,-29.785,-23.438,-31.250,-27.832,0
1594927679.059,-27.344,-22.949,-32.227,-26.855,0
1594927679.063,-28.320,-26.855,-32.227,-21.973,0
1594927679.057,-32.715,-41.992,-21.973,-24.902,0
1594927679.061,-38.086,-39.062,-22.949,-22.949,0
1594927679.065,-44.922,-31.250,-27.832,-21.484,0
1594927679.069,-40.527,-31.250,-29.785,-26.367,0
1594927679.073,-41.016,-35.645,-30.762,-27.344,0
1594927679.077,-38.574,-41.992,-23.438,-25.879,0
1594927679.081,-37.598,-38.574,-23.438,-34.180,0
1594927679.084,-37.598,-36.133,-27.832,-37.598,0
1594927679.088,-36.133,-32.715,-29.785,-28.809,0
1594927679.092,-32.227,-29.785,-26.367,-25.391,0
1594927679.096,-32.227,-32.227,-19.043,-33.203,0
1594927679.100,-33.203,-28.320,-17.090,-30.762,0
1594927679.114,-20.996,-27.832,-26.367,-25.391,0
1594927679.118,-26.855,-30.762,-28.320,-26.367,0
1594927679.122,-37.109,-23.926,-24.414,-27.344,0
1594927679.126,-31.738,-16.602,-24.902,-24.414,0
1594927679.130,-36.133,-20.508,-24.414,-26.855,0
1594927679.134,-44.434,-29.785,-25.879,-30.273,0
1594927679.138,-41.504,-32.227,-31.250,-35.156,0
1594927679.141,-39.551,-32.227,-28.320,-39.551,0
1594927679.145,-34.668,-31.738,-27.344,-43.457,0
1594927679.149,-37.109,-31.738,-30.273,-41.016,0
1594927679.153,-39.551,-37.109,-31.250,-38.086,0
1594927679.157,-46.875,-50.781,-27.832,-34.180,0
1594927679.151,-58.105,-47.363,-20.996,-26.367,0
1594927679.155,-58.105,-33.203,-16.113,-30.762,0
1594927679.159,-48.828,-33.203,-17.578,-33.691,0
1594927679.163,-48.828,-43.945,-15.625,-25.391,0
1594927679.167,-42.480,-41.016,-12.695,-19.531,0
1594927679.171,-39.551,-38.086,-18.555,-26.367,0
1594927679.175,-39.551,-39.062,-18.555,-29.297,0
1594927679.178,-33.203,-36.133,-21.484,-24.414,0
1594927679.182,-44.922,-43.457,-35.156,-30.273,0
1594927679.186,-49.805,-45.898,-35.645,-33.203,0
1594927679.190,-51.270,-35.156,-31.738,-32.715,0
1594927679.194,-47.852,-34.180,-33.203,-34.668,0
1594927679.207,-39.551,-41.504,-30.762,-33.203,0
1594927679.211,-42.480,-39.062,-31.738,-37.598,0
1594927679.215,-41.504,-32.227,-32.227,-42.969,0
1594927679.219,-45.410,-36.621,-26.367,-44.434,0
1594927679.223,-46.387,-36.133,-23.438,-45.410,0
1594927679.227,-41.992,-30.273,-28.320,-42.969,0
1594927679.231,-43.945,-27.344,-31.738,-35.645,0
1594927679.234,-45.410,-25.391,-26.367,-36.133,0
1594927679.238,-42.969,-31.250,-22.949,-32.715,0
1594927679.242,-40.527,-31.250,-27.832,-34.180,0
1594927679.246,-51.270,-32.227,-31.250,-36.621,0
1594927679.250,-54.688,-27.832,-26.855,-25.391,0
1594927679.246,-42.480,-27.832,-25.879,-22.949,0
1594927679.250,-35.645,-31.738,-25.879,-20.508,0
1594927679.254,-36.621,-27.344,-25.879,-19.043,0
1594927679.258,-33.203,-25.391,-30.762,-18.066,0
1594927679.262,-28.809,-36.133,-23.438,-16.602,0
1594927679.266,-26.855,-42.480,-22.461,-24.414,0
1594927679.270,-30.762,-27.344,-26.367,-30.273,0
1594927679.273,-38.574,-26.855,-23.926,-36.621,0
1594927679.277,-41.016,-32.227,-26.367,-40.039,0
1594927679.281,-40.039,-29.785,-26.367,-43.457,0
1594927679.285,-38.574,-30.273,-23.926,-40.527,0
1594927679.289,-33.691,-32.227,-21.973,-30.273,0
1594927679.301,-31.250,-34.668,-26.855,-27.832,0
1594927679.305,-23.926,-33.203,-30.273,-28.809,0
1594927679.309,-20.508,-24.902,-19.043,-29.297,0
1594927679.313,-29.297,-25.879,-9.766,-31.250,0
1594927679.317,-36.133,-35.645,-16.113,-33.691,0
1594927679.321,-37.109,-33.691,-22.461,-32.715,0
1594927679.325,-32.715,-31.738,-27.344,-32.715,0
1594927679.328,-28.809,-29.297,-24.902,-39.551,0
1594927679.332,-25.391,-26.367,-20.508,-37.109,0
1594927679.336,-37.598,-33.691,-25.879,-43.457,0
1594927679.340,-49.805,-36.133,-30.762,-58.594,0
1594927679.344,-50.293,-31.250,-23.438,-48.828,0
1594927679.339,-51.758,-26.367,-17.090,-40.527,0
1594927679.343,-52.246,-30.273,-20.996,-41.992,0
1594927679.347,-65.918,-34.668,-29.297,-44.922,0
1594927679.351,-67.871,-31.250,-27.344,-43.457,0
1594927679.355,-56.152,-30.273,-24.902,-44.922,0
1594927679.359,-49.805,-34.668,-34.668,-50.781,0
1594927679.363,-50.293,-35.645,-41.504,-47.363,0
1594927679.366,-52.246,-36.133,-30.762,-45.898,0
1594927679.370,-48.828,-39.062,-19.043,-47.363,0
1594927679.374,-49.805,-45.898,-22.461,-43.945,0
1594927679.378,-42.480,-40.527,-27.344,-46.387,0
1594927679.382,-40.527,-39.551,-29.297,-54.688,0
1594927679.395,-47.852,-39.062,-33.203,-60.059,0
1594927679.399,-44.922,-35.156,-31.738,-60.547,0
1594927679.403,-42.969,-30.762,-20.020,-56.641,0
1594927679.407,-36.621,-28.809,-26.367,-54.199,0
1594927679.411,-41.992,-34.180,-29.785,-61.035,0
1594927679.415,-42.480,-34.668,-27.344,-60.547,0
1594927679.419,-31.738,-29.297,-27.344,-61.035,0
1594927679.422,-27.344,-27.344,-24.902,-62.988,0
1594927679.426,-17.090,-33.203,-27.832,-62.988,0
1594927679.430,-13.184,-33.203,-26.367,-65.918,0
1594927679.434,-15.625,-32.227,-28.809,-65.918,0
1594927679.438,-25.391,-36.621,-35.156,-58.105,0
1594927679.432,-35.645,-35.156,-38.574,-54.199,0
1594927679.436,-30.273,-26.367,-49.805,-49.316,0
1594927679.440,-31.250,-34.668,-53.711,-37.598,0
1594927679.444,-42.480,-50.781,-37.598,-41.992,0
1594927679.448,-40.527,-39.062,-33.691,-43.457,0
1594927679.452,-39.551,-35.645,-41.992,-44.922,0
1594927679.456,-46.875,-37.598,-38.574,-53.711,0
1594927679.459,-52.734,-35.645,-28.809,-61.035,0
1594927679.463,-44.434,-33.203,-28.809,-53.711,0
1594927679.467,-42.969,-25.391,-28.320,-50.781,0
1594927679.471,-45.898,-26.855,-30.762,-60.547,0
1594927679.475,-45.410,-23.438,-33.691,-63.477,0
1594927679.489,-48.828,-20.508,-31.738,-57.617,0
1594927679.493,-50.781,-24.414,-37.598,-54.199,0
1594927679.497,-49.316,-25.391,-34.668,-49.805,0
1594927679.501,-45.410,-25.879,-28.809,-45.898,0
1594927679.505,-44.922,-26.855,-29.297,-42.480,0
1594927679.509,-42.969,-24.902,-30.273,-42.969,0
1594927679.513,-43.457,-23.926,-32.715,-52.734,0
1594927679.516,-48.828,-23.438,-27.344,-58.105,0
1594927679.520,-49.316,-20.508,-24.414,-63.965,0
1594927679.524,-36.133,-16.602,-26.855,-55.176,0
1594927679.528,-37.598,-23.438,-30.762,-49.316,0
1594927679.532,-42.969,-27.344,-33.203,-62.500,0
1594927679.527,-36.133,-27.344,-31.738,-61.523,0
1594927679.531,-34.180,-26.855,-35.645,-66.895,0
1594927679.535,-36.133,-26.855,-35.645,-72.754,0
1594927679.539,-37.109,-28.809,-31.250,-63.965,0
1594927679.543,-35.156,-30.762,-28.809,-68.848,0
1594927679.547,-34.180,-29.785,-27.832,-68.359,0
1594927679.551,-36.133,-24.902,-24.902,-68.359,0
1594927679.554,-38.086,-24.414,-22.949,-69.824,0
1594927679.558,-42.969,-29.297,-22.461,-57.129,0
1594927679.562,-44.434,-32.715,-18.555,-50.781,0
1594927679.566,-37.109,-27.344,-20.996,-53.223,0
1594927679.570,-34.180,-21.484,-21.484,-51.758,0
1594927679.582,-29.297,-20.020,-20.996,-48.828,0
1594927679.586,-22.461,-23.926,-26.855,-43.945,0
1594927679.590,-22.949,-22.461,-17.090,-46.875,0
1594927679.594,-26.367,-16.113,-9.277,-51.758,0
1594927679.598,-20.508,-18.066,-18.555,-49.316,0
1594927679.602,-28.809,-21.973,-26.367,-44.922,1
1594927679.606,-48.340,-25.879,-28.320,-43.945,0
1594927679.609,-50.293,-28.809,-27.344,-50.293,0
1594927679.613,-52.734,-36.621,-29.785,-53.223,0
1594927679.617,-43.945,-43.457,-29.297,-53.711,0
1594927679.621,-34.668,-46.875,-31.738,-55.664,0
1594927679.625,-39.062,-43.945,-29.785,-51.758,0
1594927679.620,-33.691,-38.086,-21.484,-48.828,0
1594927679.624,-32.715,-38.574,-20.996,-42.969,0
1594927679.628,-37.598,-37.109,-23.926,-38.574,0
1594927679.632,-35.645,-34.668,-28.809,-35.156,0
1594927679.636,-27.344,-28.809,-28.320,-36.133,0
1594927679.640,-25.391,-28.320,-28.809,-46.875,0
1594927679.644,-29.297,-32.227,-27.344,-50.781,0
1594927679.647,-25.879,-31.250,-25.879,-48.340,0
1594927679.651,-14.648,-30.762,-37.109,-39.062,0
1594927679.655,-15.625,-29.297,-34.668,-40.527,0
1594927679.659,-30.762,-34.668,-30.762,-52.734,0
1594927679.663,-27.344,-30.762,-31.738,-36.621,0
1594927679.676,-31.250,-26.855,-33.203,-30.762,0
1594927679.680,-35.156,-28.809,-34.180,-29.297,0
1594927679.684,-26.855,-28.809,-35.645,-27.832,0
1594927679.688,-27.344,-32.715,-39.551,-37.109,0
1594927679.692,-25.391,-39.062,-36.133,-37.109,0
1594927679.696,-28.320,-30.762,-39.551,-30.273,0
1594927679.700,-36.133,-26.367,-38.086,-24.414,0
1594927679.703,-39.551,-25.391,-31.250,-27.344,0
1594927679.707,-37.109,-24.902,-25.879,-32.715,0
1594927679.711,-34.180,-27.344,-28.320,-28.809,0
1594927679.715,-32.227,-27.344,-31.250,-30.762,0
1594927679.719,-35.156,-28.809,-28.809,-36.133,0
1594927679.714,-36.621,-28.320,-25.391,-34.668,0
1594927679.718,-40.039,-27.344,-22.949,-41.992,0
1594927679.722,-38.574,-27.344,-24.414,-40.527,0
1594927679.726,-35.645,-29.297,-30.273,-41.016,0
1594927679.730,-33.203,-30.273,-24.414,-40.527,0
1594927679.734,-37.109,-31.250,-26.367,-42.480,0
1594927679.738,-44.922,-25.879,-28.809,-50.293,0
1594927679.741,-42.480,-33.203,-19.531,-50.293,0
1594927679.745,-38.574,-39.062,-21.484,-45.410,0
1594927679.749,-43.457,-35.156,-31.250,-43.457,0
1594927679.753,-39.062,-30.273,-25.879,-43.945,0
1594927679.757,-27.344,-22.949,-24.414,-37.109,0
1594927679.771,-32.715,-22.461,-34.180,-38.086,0
1594927679.775,-36.133,-28.320,-40.527,-33.691,0
1594927679.779,-30.273,-21.484,-34.668,-23.438,0
1594927679.783,-37.598,-19.043,-34.668,-36.133,0
1594927679.787,-50.293,-24.902,-36.621,-58.105,0
1594927679.791,-52.734,-25.391,-39.551,-54.199,0
1594927679.795,-62.012,-22.949,-39.551,-40.039,0
1594927679.798,-63.965,-22.461,-34.180,-38.086,0
1594927679.802,-56.152,-23.926,-39.551,-40.039,0
1594927679.806,-53.223,-25.391,-59.570,-44.434,0
1594927679.810,-47.852,-24.902,-59.570,-48.828,0
1594927679.814,-48.828,-22.461,-49.316,-48.828,0
1594927679.807,-39.062,-23.926,-51.270,-40.527,0
1594927679.811,-35.645,-27.832,-40.527,-38.574,0
1594927679.815,-35.645,-19.043,-33.691,-35.156,0
1594927679.819,-31.250,-19.043,-37.109,-30.273,0
1594927679.823,-32.227,-23.438,-38.086,-37.598,0
1594927679.827,-36.621,-23.438,-31.250,-36.621,0
1594927679.831,-45.898,-23.438,-26.367,-29.297,0
1594927679.834,-48.828,-22.461,-22.949,-36.621,0
1594927679.838,-42.480,-20.508,-29.297,-36.621,0
1594927679.842,-40.527,-24.902,-27.344,-24.902,0
1594927679.846,-36.621,-30.762,-26.855,-26.367,0
1594927679.850,-30.762,-30.273,-29.785,-34.668,0
1594927679.864,-30.762,-27.832,-38.574,-37.109,0
1594927679.868,-27.832,-26.367,-41.504,-33.691,0
1594927679.872,-23.926,-19.531,-22.949,-28.809,0
1594927679.876,-34.668,-19.531,-28.320,-33.203,0
1594927679.880,-42.969,-27.344,-38.086,-49.805,0
1594927679.884,-41.504,-25.391,-29.785,-44.922,0
1594927679.888,-47.363,-27.832,-28.320,-34.180,0
1594927679.891,-48.340,-30.762,-25.879,-40.527,0
1594927679.895,-47.852,-36.133,-29.785,-50.293,0
1594927679.899,-54.199,-40.039,-35.156,-52.246,0
1594927679.903,-35.156,-35.645,-38.086,-42.969,0
1594927679.907,-30.273,-29.297,-40.527,-47.852,0
1594927679.901,-48.828,-26.855,-41.992,-53.711,0
1594927679.905,-44.922,-28.320,-40.039,-54.199,0
1594927679.909,-37.109,-30.273,-33.203,-52.246,0
1594927679.913,-37.598,-29.785,-36.621,-57.129,0
1594927679.917,-30.273,-25.391,-38.086,-60.547,0
1594927679.921,-37.598,-24.414,-34.668,-47.852,0
1594927679.925,-46.387,-28.320,-29.297,-49.316,0
1594927679.928,-42.969,-28.809,-24.902,-52.734,0
1594927679.932,-45.898,-34.180,-29.297,-41.504,0
1594927679.936,-42.480,-34.668,-28.320,-44.922,0
1594927679.940,-35.156,-28.320,-29.785,-49.805,0
1594927679.944,-38.086,-28.320,-33.691,-44.434,0
1594927679.957,-38.086,-28.320,-31.738,-45.410,0
1594927679.961,-32.715,-28.809,-36.133,-41.504,0
1594927679.965,-35.645,-30.762,-35.645,-35.645,0
1594927679.969,-43.945,-31.250,-35.156,-35.645,0
1594927679.973,-35.156,-25.391,-32.227,-31.250,0
1594927679.977,-30.273,-23.438,-32.227,-24.414,0
1594927679.981,-36.621,-33.691,-30.273,-23.438,0
1594927679.984,-35.645,-27.344,-21.973,-30.273,0
1594927679.988,-33.691,-22.949,-23.438,-32.715,0
1594927679.992,-34.180,-28.320,-24.902,-38.574,0
1594927679.996,-30.273,-27.832,-26.855,-48.340,0
1594927680.000,-35.645,-25.879,-27.832,-52.246,0
1594927679.996,-47.363,-27.344,-26.367,-53.711,0
1594927680.000,-52.734,-28.320,-25.879,-52.734,0
1594927680.004,-53.223,-28.320,-25.879,-45.898,0
1594927680.008,-45.410,-29.297,-27.344,-44.922,0
1594927680.012,-41.992,-32.715,-28.809,-50.781,0
1594927680.016,-37.598,-31.250,-25.879,-46.387,0
1594927680.020,-40.527,-33.203,-24.902,-42.480,0
1594927680.023,-42.969,-34.668,-22.949,-40.039,0
1594927680.027,-43.457,-31.738,-27.832,-32.715,0
1594927680.031,-41.504,-36.133,-25.879,-32.227,0
1594927680.035,-37.109,-50.781,-21.484,-32.227,0
1594927680.039,-39.551,-42.480,-21.484,-33.203,0
1594927680.051,-35.156,-31.738,-20.996,-46.875,0
1594927680.055,-41.016,-37.109,-23.926,-47.363,0
1594927680.059,-54.199,-34.668,-19.531,-33.691,0
1594927680.063,-48.828,-31.250,-22.949,-41.016,0
1594927680.067,-47.852,-33.691,-20.508,-46.387,0
1594927680.071,-49.805,-30.762,-22.461,-41.992,0
1594927680.075,-44.434,-28.320,-29.297,-35.645,0
1594927680.078,-39.062,-28.809,-25.391,-34.668,0
1594927680.082,-36.133,-25.879,-22.949,-36.133,0
1594927680.086,-37.109,-22.949,-25.879,-36.133,0
1594927680.090,-33.691,-22.461,-29.297,-39.062,0
1594927680.094,-28.809,-20.508,-26.367,-36.621,0
1594927680.089,-26.855,-18.066,-23.926,-33.203,0
1594927680.093,-38.086,-19.531,-26.855,-31.738,0
1594927680.097,-41.504,-20.996,-29.785,-31.250,0
1594927680.101,-44.922,-22.949,-28.809,-31.738,0
1594927680.105,-48.828,-26.367,-28.320,-25.391,0
1594927680.109,-44.922,-25.879,-29.297,-27.832,0
1594927680.113,-42.969,-25.391,-28.809,-34.668,0
1594927680.116,-38.086,-27.344,-30.762,-30.273,0
1594927680.120,-42.480,-26.855,-32.715,-28.320,0
1594927680.124,-43.457,-25.391,-27.344,-25.391,0
1594927680.128,-39.551,-22.949,-24.902,-30.273,0
1594927680.132,-47.363,-25.879,-27.832,-36.133,0
1594927680.145,-49.805,-29.785,-25.391,-35.645,0
1594927680.149,-36.621,-36.621,-26.367,-33.203,0
1594927680.153,-28.809,-37.109,-27.832,-30.273,0
1594927680.157,-38.086,-32.715,-27.832,-40.039,0
1594927680.161,-39.062,-27.832,-27.832,-52.734,0
1594927680.165,-34.668,-29.297,-30.273,-40.527,0
1594927680.169,-32.227,-35.645,-33.203,-36.621,0
1594927680.172,-28.320,-29.297,-26.855,-43.457,0
1594927680.176,-21.484,-30.273,-26.367,-38.574,0
1594927680.180,-24.414,-31.738,-28.809,-30.762,0
1594927680.184,-34.668,-35.645,-20.020,-23.926,0
1594927680.188,-37.598,-34.668,-17.090,-16.602,0
1594927680.185,-40.039,-24.414,-20.996,-22.461,0
1594927680.189,-39.062,-21.484,-22.949,-18.555,0
1594927680.193,-41.504,-27.344,-23.438,-21.484,0
1594927680.197,-39.062,-30.762,-18.066,-21.973,0
1594927680.201,-43.945,-29.785,-22.461,-26.855,0
1594927680.205,-47.852,-30.273,-31.250,-40.527,0
1594927680.209,-42.480,-28.320,-27.832,-34.180,0
1594927680.212,-41.016,-26.855,-30.273,-35.156,0
1594927680.216,-36.621,-31.738,-38.574,-42.969,0
1594927680.220,-33.691,-35.645,-27.832,-37.109,0
1594927680.224,-35.645,-28.320,-20.020,-41.016,0
1594927680.228,-41.504,-33.691,-25.391,-48.340,0
1594927680.239,-41.016,-38.574,-29.297,-45.410,0
1594927680.243,-34.180,-30.762,-30.273,-43.457,0
1594927680.247,-35.645,-25.879,-36.133,-45.410,0
1594927680.251,-43.457,-31.250,-31.738,-51.758,0
1594927680.255,-38.086,-32.227,-26.855,-58.105,0
1594927680.259,-32.227,-27.832,-31.250,-62.988,0
1594927680.263,-36.621,-26.367,-30.273,-50.293,0
1594927680.266,-30.273,-20.508,-22.949,-41.016,0
1594927680.270,-25.391,-17.090,-22.461,-45.898,0
1594927680.274,-37.109,-26.855,-27.344,-49.805,0
1594927680.278,-40.039,-29.297,-29.785,-51.758,0
1594927680.282,-32.715,-24.902,-26.855,-51.758,0
1594927680.276,-40.039,-25.879,-30.273,-50.781,0
1594927680.280,-41.016,-30.273,-31.738,-42.969,0
1594927680.284,-38.086,-40.527,-33.203,-46.875,0
1594927680.288,-45.410,-42.480,-36.621,-48.340,0
1594927680.292,-41.992,-40.039,-35.156,-42.969,0
1594927680.296,-47.363,-40.039,-33.203,-43.457,0
1594927680.300,-42.480,-37.109,-22.949,-37.109,0
1594927680.303,-28.320,-31.738,-23.438,-33.691,0
1594927680.307,-24.902,-26.367,-27.832,-32.227,0
1594927680.311,-30.762,-23.438,-27.344,-43.457,0
1594927680.315,-35.645,-24.902,-24.902,-48.340,0
1594927680.319,-35.156,-27.832,-21.973,-42.480,0
1594927680.332,-38.574,-32.227,-24.902,-42.969,0
1594927680.336,-35.645,-34.668,-35.645,-34.668,0
1594927680.340,-38.574,-34.180,-36.133,-32.715,0
1594927680.344,-41.016,-35.156,-22.461,-36.621,0
1594927680.348,-37.109,-41.992,-20.020,-35.156,0
1594927680.352,-37.109,-41.016,-25.879,-40.527,0
1594927680.356,-37.109,-38.574,-29.297,-38.574,0
1594927680.359,-34.668,-41.504,-27.832,-37.109,0
1594927680.363,-38.086,-40.527,-27.832,-36.133,0
1594927680.367,-41.504,-37.598,-30.273,-33.203,0
1594927680.371,-47.852,-31.738,-28.809,-41.504,0
1594927680.375,-50.781,-28.809,-27.832,-48.828,2
1594927680.370,-39.551,-32.227,-27.832,-32.715,0
1594927680.374,-34.180,-25.879,-26.855,-26.855,0
1594927680.378,-33.203,-21.973,-31.738,-41.016,0
1594927680.382,-33.691,-24.414,-35.645,-44.434,0
1594927680.386,-41.992,-20.996,-37.598,-41.504,0
1594927680.390,-45.410,-19.531,-32.227,-39.551,0
1594927680.394,-41.504,-17.090,-27.344,-39.062,0
1594927680.397,-37.598,-17.578,-28.320,-38.574,0
1594927680.401,-39.551,-21.973,-35.645,-35.156,0
1594927680.405,-38.574,-24.414,-33.203,-34.668,0
1594927680.409,-41.504,-30.273,-24.902,-42.480,0
1594927680.413,-49.805,-34.180,-24.902,-54.199,0
1594927680.426,-42.969,-34.180,-24.902,-45.410,0
1594927680.430,-35.645,-35.156,-29.297,-39.551,0
1594927680.434,-41.992,-32.715,-28.320,-40.527,0
1594927680.438,-51.270,-31.250,-24.414,-41.504,0
1594927680.442,-54.199,-35.156,-28.320,-45.898,0
1594927680.446,-53.223,-40.039,-30.762,-44.434,0
1594927680.450,-48.340,-38.574,-27.344,-39.551,0
1594927680.453,-47.852,-38.086,-25.391,-40.039,0
1594927680.457,-46.387,-38.086,-30.762,-42.969,0
1594927680.461,-32.715,-28.809,-28.809,-38.574,0
1594927680.465,-31.738,-29.297,-29.785,-30.762,0
1594927680.469,-36.133,-26.855,-32.227,-33.691,0
1594927680.465,-32.715,-26.855,-29.785,-38.086,0
1594927680.469,-36.133,-31.250,-25.391,-41.992,0
1594927680.473,-35.645,-33.691,-27.344,-44.434,0
1594927680.477,-38.574,-42.480,-30.273,-42.969,0
1594927680.481,-41.992,-40.527,-26.855,-43.945,0
1594927680.485,-41.992,-36.133,-24.902,-48.340,0
1594927680.489,-39.062,-29.785,-18.555,-38.086,0
1594927680.492,-35.156,-23.438,-17.578,-35.645,0
1594927680.496,-36.133,-28.809,-24.902,-30.762,0
1594927680.500,-34.668,-42.480,-23.926,-30.273,0
1594927680.504,-30.273,-44.434,-21.973,-38.574,0
1594927680.508,-32.715,-39.551,-27.832,-41.992,0
1594927680.521,-33.691,-45.410,-33.203,-46.387,0
1594927680.525,-36.133,-46.387,-38.574,-44.922,0
1594927680.529,-38.086,-36.621,-32.715,-49.316,0
1594927680.533,-47.363,-37.598,-29.297,-54.199,0
1594927680.537,-42.480,-37.109,-34.180,-57.129,0
1594927680.541,-32.715,-30.273,-41.992,-54.688,0
1594927680.545,-40.039,-34.180,-44.434,-52.734,0
1594927680.548,-45.410,-33.203,-36.621,-52.734,0
1594927680.552,-35.645,-28.809,-32.715,-47.363,0
1594927680.556,-34.180,-35.156,-32.227,-45.410,0
1594927680.560,-29.297,-39.551,-29.785,-43.457,0
1594927680.564,-37.598,-36.621,-32.715,-51.758,0
1594927680.576,-45.410,-33.691,-33.203,-60.547,0
1594927680.580,-37.109,-34.668,-21.484,-59.570,0
1594927680.584,-35.156,-34.180,-24.414,-48.828,0
1594927680.588,-28.320,-32.227,-38.086,-39.551,0
1594927680.592,-38.574,-28.320,-41.504,-46.387,0
1594927680.596,-43.945,-32.715,-34.180,-39.551,0
1594927680.600,-33.203,-35.645,-33.203,-34.668,0
1594927680.603,-35.156,-32.715,-34.180,-41.992,0
1594927680.607,-36.133,-34.668,-36.133,-27.344,0
1594927680.611,-29.785,-34.180,-33.691,-13.672,0
1594927680.615,-37.109,-30.762,-26.855,-19.531,0
1594927680.619,-39.551,-25.391,-29.785,-29.785,0
1594927680.614,-35.645,-26.855,-30.762,-29.785,0
1594927680.618,-34.180,-31.250,-30.762,-28.809,0
1594927680.622,-36.133,-37.109,-36.621,-36.133,0
1594927680.626,-36.621,-35.645,-36.133,-39.062,0
1594927680.630,-46.387,-35.156,-33.691,-39.062,0
1594927680.634,-51.758,-37.109,-37.109,-41.016,0
1594927680.638,-40.527,-34.180,-38.086,-42.480,0
1594927680.641,-37.598,-31.738,-35.156,-41.992,0
1594927680.645,-44.922,-31.250,-32.715,-50.781,0
1594927680.649,-47.363,-33.203,-34.180,-49.316,0
1594927680.653,-43.945,-34.180,-41.016,-48.828,0
1594927680.657,-43.945,-31.250,-39.062,-49.805,0
1594927680.651,-39.551,-27.344,-29.297,-46.875,0
1594927680.655,-37.109,-31.250,-33.203,-45.410,0
1594927680.659,-39.062,-42.969,-35.645,-44.922,0
1594927680.663,-34.668,-31.250,-31.738,-40.039,0
1594927680.667,-37.598,-20.508,-27.832,-36.133,0
1594927680.671,-34.668,-31.250,-30.273,-41.992,0
1594927680.675,-34.668,-36.621,-25.879,-41.504,0
1594927680.678,-44.434,-36.621,-26.367,-34.668,0
1594927680.682,-50.781,-33.691,-31.738,-36.133,0
1594927680.686,-54.688,-29.297,-28.809,-44.434,0
1594927680.690,-53.223,-30.273,-29.785,-39.551,0
1594927680.694,-54.199,-30.273,-26.367,-35.645,0
1594927680.707,-47.852,-23.926,-22.949,-36.133,0
1594927680.711,-41.504,-22.949,-26.855,-29.297,0
1594927680.715,-39.062,-23.926,-20.020,-30.762,0
1594927680.719,-32.715,-24.414,-24.414,-35.156,0
1594927680.723,-31.250,-23.926,-24.902,-42.969,0
1594927680.727,-32.715,-29.297,-27.832,-50.781,0
1594927680.731,-31.738,-34.180,-32.227,-43.945,0
1594927680.734,-31.250,-32.715,-22.461,-41.504,0
1594927680.738,-26.855,-31.250,-22.461,-44.922,0
1594927680.742,-19.043,-30.762,-28.320,-39.551,0
1594927680.746,-20.508,-30.273,-28.809,-41.016,0
1594927680.750,-21.973,-31.250,-30.273,-43.457,0
1594927680.747,-19.043,-27.344,-27.832,-39.551,0
1594927680.751,-26.367,-28.320,-26.855,-39.551,0
1594927680.755,-33.691,-36.133,-28.809,-42.969,0
1594927680.759,-27.344,-32.227,-24.414,-37.598,0
1594927680.763,-23.926,-30.762,-21.973,-35.645,0
1594927680.767,-35.645,-36.621,-30.273,-30.762,0
1594927680.771,-40.039,-37.109,-35.645,-29.297,0
1594927680.774,-30.762,-34.180,-28.320,-29.785,0
1594927680.778,-33.691,-33.203,-30.273,-27.344,0
1594927680.782,-42.480,-29.785,-29.297,-37.598,0
1594927680.786,-36.133,-30.273,-25.391,-37.109,0
1594927680.790,-30.273,-22.461,-19.531,-30.762,0
1594927680.801,-25.391,-21.484,-22.949,-27.832,0
1594927680.805,-31.738,-38.574,-32.227,-31.250,0
1594927680.809,-42.480,-37.598,-32.227,-39.062,0
1594927680.813,-34.180,-32.227,-34.668,-42.969,0
1594927680.817,-31.738,-31.738,-34.180,-49.316,0
1594927680.821,-36.133,-29.297,-30.273,-44.922,0
1594927680.825,-32.227,-28.320,-29.785,-31.250,0
1594927680.828,-46.387,-25.879,-23.438,-26.367,0
1594927680.832,-49.316,-25.391,-21.484,-27.344,0
1594927680.836,-42.969,-28.320,-26.367,-27.832,0
1594927680.840,-49.316,-28.320,-30.273,-31.738,0
1594927680.844,-49.805,-30.762,-32.227,-41.992,0
1594927680.839,-40.527,-33.203,-27.344,-39.062,0
1594927680.843,-28.809,-29.785,-25.879,-36.621,0
1594927680.847,-29.785,-27.344,-24.902,-51.270,0
1594927680.851,-38.574,-22.461,-21.484,-45.410,0
1594927680.855,-41.992,-20.508,-26.367,-31.738,0
1594927680.859,-48.340,-24.414,-30.273,-40.527,0
1594927680.863,-41.504,-28.320,-30.273,-41.992,0
1594927680.866,-36.621,-31.738,-33.691,-41.992,0
1594927680.870,-38.086,-38.086,-39.551,-28.320,0
1594927680.874,-35.645,-41.992,-28.809,-18.066,0
1594927680.878,-42.969,-39.062,-25.391,-33.203,0
1594927680.882,-47.363,-37.109,-29.785,-30.762,0
1594927680.895,-44.922,-36.133,-26.855,-21.484,0
1594927680.899,-45.898,-34.668,-21.973,-19.531,0
1594927680.903,-48.828,-34.668,-15.137,-20.996,0
1594927680.907,-40.527,-36.133,-12.695,-16.113,0
1594927680.911,-41.992,-31.250,-15.625,-16.113,0
1594927680.915,-50.293,-29.785,-21.484,-19.531,0
1594927680.919,-44.434,-33.691,-21.973,-18.555,0
1594927680.922,-39.062,-30.762,-18.555,-26.855,0
1594927680.926,-43.457,-31.250,-21.484,-35.645,0
1594927680.930,-52.734,-39.551,-32.715,-42.480,0
1594927680.934,-52.246,-35.645,-26.855,-35.645,0
1594927680.938,-43.457,-27.344,-20.508,-25.391,0
1594927680.932,-35.156,-22.949,-21.484,-28.320,0
1594927680.936,-34.668,-23.926,-19.043,-33.691,0
1594927680.940,-37.109,-25.879,-22.949,-36.621,0
1594927680.944,-39.062,-23.926,-30.762,-35.645,0
1594927680.948,-43.457,-19.043,-27.832,-37.109,0
1594927680.952,-50.781,-24.414,-28.809,-43.457,0
1594927680.956,-53.711,-26.367,-33.691,-48.340,0
1594927680.959,-44.434,-20.508,-29.297,-46.875,0
1594927680.963,-36.133,-29.785,-32.227,-41.992,0
1594927680.967,-49.316,-33.691,-28.809,-42.480,0
1594927680.971,-54.199,-26.855,-24.902,-48.340,0
1594927680.975,-40.527,-21.973,-26.855,-43.457,0
1594927680.989,-35.156,-21.973,-29.297,-37.109,0
1594927680.993,-38.086,-29.785,-34.180,-30.273,0
1594927680.997,-40.039,-28.320,-30.762,-31.738,0
1594927681.001,-36.133,-27.832,-24.414,-41.504,0
1594927681.005,-32.715,-36.621,-23.438,-41.504,0
1594927681.009,-36.133,-38.574,-29.785,-35.645,0
1594927681.013,-37.598,-34.668,-30.762,-31.250,0
1594927681.016,-37.598,-30.273,-19.043,-38.086,0
1594927681.020,-32.715,-27.832,-19.043,-29.297,0
1594927681.024,-39.062,-28.320,-23.438,-28.809,0
1594927681.028,-35.156,-26.367,-26.367,-35.645,0
1594927681.032,-33.203,-25.391,-29.785,-37.598,0
1594927681.026,-38.086,-27.832,-25.879,-31.738,0
1594927681.030,-36.621,-22.461,-23.926,-25.879,0
1594927681.034,-41.504,-21.484,-27.344,-30.762,0
1594927681.038,-40.527,-22.461,-24.902,-37.109,0
1594927681.042,-38.086,-22.461,-24.414,-34.180,0
1594927681.046,-35.645,-25.391,-24.902,-30.762,0
1594927681.050,-39.551,-25.879,-24.902,-39.551,0
1594927681.053,-42.969,-31.250,-27.344,-39.551,0
1594927681.057,-40.039,-37.109,-30.762,-29.297,0
1594927681.061,-40.039,-38.086,-29.297,-28.320,0
1594927681.065,-35.645,-33.203,-23.926,-41.016,0
1594927681.069,-36.133,-31.738,-23.438,-44.434,0
1594927681.082,-30.762,-28.320,-25.879,-40.039,0
1594927681.086,-19.043,-25.879,-27.344,-39.551,0
1594927681.090,-24.902,-23.926,-20.020,-46.387,0
1594927681.094,-32.227,-20.020,-23.926,-40.039,0
1594927681.098,-28.809,-27.344,-31.250,-31.250,0
1594927681.102,-15.137,-31.738,-31.738,-37.109,0
1594927681.106,-8.301,-27.344,-34.180,-45.410,0
1594927681.109,-25.879,-28.320,-28.320,-47.363,0
1594927681.113,-26.855,-35.645,-28.320,-46.387,0
1594927681.117,-27.832,-36.133,-27.832,-39.062,0
1594927681.121,-36.133,-36.621,-23.926,-33.691,0
1594927681.125,-38.086,-32.715,-23.438,-31.250,0
1594927681.120,-39.551,-31.250,-29.785,-28.809,0
1594927681.124,-45.898,-35.156,-30.762,-30.762,0
1594927681.128,-50.781,-35.645,-25.879,-39.062,0
1594927681.132,-44.922,-33.203,-33.203,-42.480,0
1594927681.136,-33.691,-29.297,-33.691,-36.621,0
1594927681.140,-30.273,-29.785,-25.391,-35.645,0
1594927681.144,-40.039,-30.273,-25.391,-39.062,0
1594927681.147,-41.504,-31.738,-24.902,-37.598,0
1594927681.151,-42.969,-39.062,-30.273,-33.203,0
1594927681.155,-43.945,-37.109,-29.297,-35.645,0
1594927681.159,-41.504,-34.668,-24.902,-43.457,0
1594927681.163,-40.039,-36.133,-29.297,-48.340,0
1594927681.176,-38.574,-36.133,-33.203,-45.898,0
1594927681.180,-41.016,-37.598,-37.109,-45.898,0
1594927681.184,-46.387,-35.156,-35.645,-46.875,0
1594927681.188,-39.062,-32.715,-31.250,-44.434,0
1594927681.192,-35.645,-33.691,-24.414,-43.945,0
1594927681.196,-42.480,-37.598,-27.832,-41.992,0
1594927681.200,-41.992,-39.062,-33.203,-39.551,0
1594927681.203,-38.574,-37.598,-25.391,-37.598,0
1594927681.207,-37.109,-41.992,-29.297,-38.086,0
1594927681.211,-35.156,-41.016,-32.227,-40.039,0
1594927681.215,-35.645,-39.551,-34.668,-43.457,0
1594927681.219,-38.086,-40.527,-37.598,-41.992,0
1594927681.216,-38.574,-39.551,-31.738,-39.551,0
1594927681.220,-35.645,-36.621,-28.809,-37.109,0
1594927681.224,-31.250,-36.133,-28.809,-37.598,0
1594927681.228,-29.297,-35.156,-29.785,-30.762,0
1594927681.232,-40.039,-33.203,-26.367,-29.785,0
1594927681.236,-45.898,-34.668,-24.902,-23.438,0
1594927681.240,-41.504,-34.180,-26.855,-25.879,0
1594927681.243,-41.016,-33.203,-25.391,-27.344,0
1594927681.247,-34.668,-37.109,-28.320,-21.484,0
1594927681.251,-36.621,-35.156,-29.785,-28.809,0
1594927681.255,-36.621,-27.832,-26.367,-25.879,0
1594927681.259,-26.367,-24.902,-31.250,-24.414,0
1594927681.270,-23.438,-24.414,-32.715,-24.414,0
1594927681.274,-27.832,-29.785,-34.180,-18.066,0
1594927681.278,-29.297,-34.180,-37.109,-18.066,0
1594927681.282,-30.273,-28.809,-32.715,-26.855,0
1594927681.286,-35.645,-25.391,-30.273,-33.203,0
1594927681.290,-39.551,-22.949,-31.250,-31.738,1
1594927681.294,-41.016,-20.020,-34.180,-35.156,0
1594927681.297,-43.945,-21.973,-35.645,-36.621,0
1594927681.301,-42.969,-22.949,-31.738,-41.504,0
1594927681.305,-35.156,-25.391,-32.715,-52.734,0
1594927681.309,-33.691,-29.297,-31.250,-52.246,0
1594927681.313,-38.574,-29.785,-27.832,-44.434,0
1594927681.307,-43.945,-32.715,-30.273,-47.852,0
1594927681.311,-41.016,-31.250,-27.832,-45.898,0
1594927681.315,-35.156,-33.203,-28.809,-41.016,0
1594927681.319,-33.203,-36.621,-31.250,-38.574,0
1594927681.323,-35.156,-37.598,-33.691,-45.898,0
1594927681.327,-38.086,-38.574,-31.250,-41.504,0
1594927681.331,-44.922,-39.551,-27.832,-33.203,0
1594927681.334,-47.852,-37.109,-31.250,-37.598,0
1594927681.338,-38.574,-31.738,-30.273,-31.250,0
1594927681.342,-38.574,-22.461,-29.785,-30.273,0
1594927681.346,-39.062,-22.949,-31.250,-31.738,0
1594927681.350,-40.039,-24.902,-26.367,-29.785,0
1594927681.364,-46.387,-21.484,-22.949,-29.297,0
1594927681.368,-39.062,-22.949,-29.297,-25.879,0
1594927681.372,-29.785,-22.461,-23.438,-25.391,0
1594927681.376,-42.969,-20.020,-19.531,-22.461,0
1594927681.380,-45.410,-21.484,-20.020,-26.855,0
1594927681.384,-39.551,-24.902,-22.461,-27.832,0
1594927681.388,-39.062,-25.391,-23.438,-12.207,0
1594927681.391,-35.156,-25.391,-23.438,-10.742,0
1594927681.395,-37.109,-28.809,-27.344,-18.066,0
1594927681.399,-43.945,-34.668,-31.250,-22.949,0
1594927681.403,-41.992,-37.109,-36.133,-15.625,0
1594927681.407,-39.551,-31.738,-36.133,-9.766,0
1594927681.401,-38.574,-33.691,-35.156,-14.648,0
1594927681.405,-35.645,-40.039,-30.273,-21.484,0
1594927681.409,-34.180,-34.668,-33.203,-23.926,0
1594927681.413,-33.691,-27.832,-32.715,-15.625,0
1594927681.417,-30.273,-27.832,-27.832,-17.090,0
1594927681.421,-25.391,-26.855,-34.180,-20.996,0
1594927681.425,-25.879,-32.715,-35.645,-22.461,0
1594927681.428,-29.785,-40.039,-27.832,-25.879,0
1594927681.432,-35.645,-27.344,-29.785,-27.832,0
1594927681.436,-37.598,-26.855,-27.344,-25.391,0
1594927681.440,-44.922,-27.344,-27.344,-35.645,0
1594927681.444,-46.387,-26.855,-26.367,-37.598,0
1594927681.458,-31.738,-28.320,-24.414,-33.691,0
1594927681.462,-34.180,-31.738,-34.180,-39.062,0
1594927681.466,-49.316,-32.227,-31.738,-39.551,0
1594927681.470,-48.340,-32.227,-32.715,-41.016,0
1594927681.474,-47.363,-34.668,-37.598,-47.363,0
1594927681.478,-51.270,-37.598,-32.715,-45.898,0
1594927681.482,-49.805,-34.180,-31.250,-37.598,0
1594927681.485,-41.016,-32.715,-27.832,-45.898,0
1594927681.489,-35.156,-40.039,-30.762,-49.316,0
1594927681.493,-42.969,-43.457,-34.668,-51.758,0
1594927681.497,-54.688,-45.410,-31.250,-52.734,0
1594927681.501,-49.316,-44.434,-30.273,-47.852,0
1594927681.496,-42.969,-42.969,-27.344,-44.434,0
1594927681.500,-41.504,-41.992,-21.484,-37.109,0
1594927681.504,-39.062,-39.551,-21.484,-28.320,0
1594927681.508,-37.598,-35.645,-23.926,-28.809,0
1594927681.512,-33.691,-33.203,-25.879,-29.297,0
1594927681.516,-30.762,-31.738,-29.785,-34.180,0
1594927681.520,-32.715,-26.855,-30.762,-37.109,0
1594927681.523,-33.203,-27.832,-26.367,-36.621,0
1594927681.527,-33.691,-33.203,-31.250,-38.574,0
1594927681.531,-34.668,-34.668,-22.949,-36.621,0
1594927681.535,-30.762,-40.039,-12.207,-39.551,0
1594927681.539,-28.809,-38.574,-18.066,-40.527,0
1594927681.551,-39.551,-34.668,-23.926,-41.992,0
1594927681.555,-40.039,-33.691,-29.785,-37.109,0
1594927681.559,-35.156,-28.320,-27.832,-37.109,0
1594927681.563,-30.273,-26.367,-26.855,-34.180,0
1594927681.567,-34.668,-24.414,-31.738,-31.250,0
1594927681.571,-38.574,-20.996,-35.645,-44.922,0
1594927681.575,-34.668,-32.715,-37.598,-49.316,0
1594927681.578,-34.180,-32.715,-28.809,-43.457,0
1594927681.582,-27.344,-21.484,-30.273,-38.574,0
1594927681.586,-28.809,-26.855,-34.668,-42.480,0
1594927681.590,-32.227,-30.273,-28.320,-36.621,0
1594927681.594,-28.320,-22.461,-25.391,-26.367,0
1594927681.589,-36.621,-22.461,-20.020,-22.949,0
1594927681.593,-43.945,-23.926,-21.973,-22.461,0
1594927681.597,-44.434,-24.414,-30.762,-19.043,0
1594927681.601,-49.316,-32.715,-34.180,-21.484,0
1594927681.605,-50.293,-34.668,-30.273,-26.855,0
1594927681.609,-52.734,-38.574,-31.250,-29.785,0
1594927681.613,-51.758,-39.551,-30.273,-34.668,0
1594927681.616,-50.293,-37.598,-26.367,-37.598,0
1594927681.620,-48.340,-43.457,-33.203,-32.227,0
1594927681.624,-53.711,-44.922,-34.668,-25.879,0
1594927681.628,-51.270,-42.480,-31.250,-34.180,0
1594927681.632,-43.945,-43.457,-33.203,-42.480,0
1594927681.645,-42.480,-44.434,-34.668,-45.410,0
1594927681.649,-43.457,-42.969,-38.086,-42.480,0
1594927681.653,-40.039,-37.598,-35.645,-36.621,0
1594927681.657,-41.992,-34.668,-36.133,-38.574,0
1594927681.661,-43.945,-31.250,-33.203,-32.227,0
1594927681.665,-39.062,-35.645,-29.785,-20.020,0
1594927681.669,-40.527,-35.645,-30.273,-26.367,0
1594927681.672,-40.039,-35.156,-31.250,-32.227,0
1594927681.676,-39.062,-38.086,-33.203,-32.227,0
1594927681.680,-38.574,-35.156,-29.297,-38.574,0
1594927681.684,-42.480,-32.227,-31.738,-35.645,0
1594927681.688,-37.109,-27.344,-30.762,-30.762,0
1594927681.682,-34.668,-28.809,-27.344,-42.480,0
1594927681.686,-44.434,-32.715,-27.832,-36.133,0
1594927681.690,-43.945,-32.715,-26.367,-27.344,0
1594927681.694,-35.156,-31.738,-24.414,-28.809,0
1594927681.698,-36.133,-33.203,-22.461,-34.668,0
1594927681.702,-37.598,-35.156,-28.320,-29.785,0
1594927681.706,-38.574,-33.691,-27.832,-27.832,0
1594927681.709,-39.551,-29.785,-22.461,-30.273,0
1594927681.713,-41.016,-31.250,-28.809,-26.855,0
1594927681.717,-37.598,-24.414,-31.738,-22.461,0
1594927681.721,-39.062,-24.414,-24.902,-25.391,0
1594927681.725,-41.504,-34.668,-24.414,-20.508,0
1594927681.740,-39.551,-40.527,-27.832,-19.043,0
1594927681.744,-38.086,-36.133,-32.227,-24.902,0
1594927681.748,-40.039,-30.762,-30.273,-28.320,0
1594927681.752,-38.574,-32.715,-25.879,-30.273,0
1594927681.756,-35.156,-35.645,-25.391,-26.367,0
1594927681.760,-35.645,-35.645,-31.738,-23.926,0
1594927681.764,-39.062,-33.691,-42.480,-27.344,0
1594927681.767,-41.992,-29.297,-29.785,-32.227,0
1594927681.771,-37.598,-35.645,-23.438,-32.715,0
1594927681.775,-30.762,-37.109,-18.555,-18.555,0
1594927681.779,-36.133,-31.250,-16.602,-26.855,0
1594927681.783,-39.551,-29.297,-20.020,-40.527,0
1594927681.776,-32.715,-27.344,-14.648,-29.297,0
1594927681.780,-37.109,-21.973,-17.090,-25.879,0
1594927681.784,-40.039,-21.484,-17.578,-24.902,0
1594927681.788,-37.598,-27.832,-19.531,-20.508,0
1594927681.792,-34.668,-30.273,-21.484,-25.879,0
1594927681.796,-37.109,-27.344,-21.973,-30.273,0
1594927681.800,-45.410,-26.855,-21.973,-26.367,0
1594927681.803,-50.293,-28.809,-20.508,-28.320,0
1594927681.807,-51.270,-29.297,-27.832,-24.902,0
1594927681.811,-48.340,-35.645,-26.367,-18.555,0
1594927681.815,-51.758,-36.133,-27.344,-28.320,0
1594927681.819,-56.641,-30.762,-28.809,-31.738,0
1594927681.832,-51.270,-37.109,-26.855,-26.367,0
1594927681.836,-48.340,-34.668,-30.273,-23.438,0
1594927681.840,-41.504,-27.832,-22.949,-22.461,0
1594927681.844,-44.922,-29.785,-24.414,-26.367,0
1594927681.848,-57.129,-31.738,-32.715,-34.668,0
1594927681.852,-42.969,-30.273,-37.598,-39.551,0
1594927681.856,-48.340,-33.203,-33.691,-31.738,0
1594927681.859,-61.035,-36.133,-37.109,-31.738,0
1594927681.863,-45.410,-40.039,-33.203,-35.645,0
1594927681.867,-40.527,-41.016,-23.438,-34.180,0
1594927681.871,-48.828,-34.180,-31.250,-29.785,0
1594927681.875,-48.340,-31.738,-33.203,-22.949,0
1594927681.870,-44.922,-35.645,-32.715,-40.039,0
1594927681.874,-38.574,-31.738,-31.250,-47.363,0
1594927681.878,-34.180,-31.250,-23.438,-28.809,0
1594927681.882,-32.715,-30.273,-24.414,-26.855,0
1594927681.886,-35.156,-25.879,-24.414,-25.391,0
1594927681.890,-29.785,-26.367,-26.367,-17.578,0
1594927681.894,-28.809,-32.227,-27.832,-26.367,0
1594927681.897,-37.598,-34.668,-26.855,-25.391,0
1594927681.901,-41.504,-25.879,-31.250,-17.578,0
1594927681.905,-42.969,-24.414,-27.832,-22.461,0
1594927681.909,-45.898,-27.344,-30.762,-33.691,0
1594927681.913,-45.410,-32.715,-32.227,-42.969,0
1594927681.926,-43.457,-34.180,-27.832,-40.039,0
1594927681.930,-46.387,-35.645,-37.598,-30.273,0
1594927681.934,-44.434,-29.297,-35.645,-27.832,0
1594927681.938,-31.738,-18.555,-28.320,-21.484,0
1594927681.942,-30.762,-19.043,-27.832,-16.602,0
1594927681.946,-34.668,-25.391,-29.297,-20.020,0
1594927681.950,-31.738,-32.227,-32.715,-17.090,0
1594927681.953,-34.180,-32.227,-29.297,-21.484,0
1594927681.957,-34.180,-29.297,-28.320,-23.438,0
1594927681.961,-31.738,-30.273,-30.762,-20.996,0
1594927681.965,-34.668,-33.691,-29.785,-26.367,0
1594927681.969,-41.504,-30.273,-23.926,-29.785,0
1594927681.965,-44.922,-28.809,-30.762,-35.156,0
1594927681.969,-48.340,-34.180,-26.855,-32.715,0
1594927681.973,-43.945,-32.227,-20.020,-24.902,0
1594927681.977,-39.062,-32.227,-23.438,-27.832,0
1594927681.981,-43.457,-32.227,-22.949,-30.273,0
1594927681.985,-44.434,-30.273,-26.367,-28.809,0
1594927681.989,-38.574,-27.832,-28.809,-23.926,0
1594927681.992,-41.504,-31.250,-29.297,-21.973,0
1594927681.996,-46.387,-37.109,-32.227,-22.949,0
1594927682.000,-32.715,-33.203,-28.320,-26.855,2
1594927682.004,-29.297,-27.832,-24.902,-34.180,0
1594927682.008,-36.133,-27.832,-26.367,-28.320,0
1594927682.020,-35.156,-33.203,-29.785,-24.414,0
1594927682.024,-32.715,-38.574,-34.668,-25.879,0
1594927682.028,-37.598,-31.738,-32.227,-29.785,0
1594927682.032,-35.645,-28.809,-28.809,-29.297,0
1594927682.036,-38.574,-28.320,-32.227,-28.809,0
1594927682.040,-35.645,-28.320,-42.480,-27.832,0
1594927682.044,-29.785,-31.738,-40.039,-20.996,0
1594927682.047,-33.691,-30.762,-36.621,-28.320,0
1594927682.051,-27.832,-32.715,-37.598,-35.645,0
1594927682.055,-25.879,-28.809,-35.645,-39.551,0
1594927682.059,-29.297,-25.391,-29.297,-38.574,0
1594927682.063,-37.109,-31.250,-20.508,-34.668,0
1594927682.057,-49.805,-28.320,-21.484,-33.691,0
1594927682.061,-46.875,-23.438,-26.855,-30.273,0
1594927682.065,-42.969,-26.367,-29.785,-34.180,0
1594927682.069,-42.969,-27.832,-35.156,-37.109,0
1594927682.073,-39.062,-26.855,-33.203,-26.367,0
1594927682.077,-30.762,-25.879,-23.438,-14.648,0
1594927682.081,-26.367,-21.973,-21.484,-24.902,0
1594927682.084,-25.391,-22.949,-24.902,-31.250,0
1594927682.088,-23.926,-23.926,-25.391,-19.043,0
1594927682.092,-20.020,-18.555,-22.461,-11.719,0
1594927682.096,-16.113,-19.531,-16.602,-15.137,0
1594927682.100,-24.414,-24.902,-21.484,-8.789,0
1594927682.114,-29.297,-30.273,-30.273,-9.766,0
1594927682.118,-25.879,-43.457,-23.926,-12.695,0
1594927682.122,-24.414,-54.688,-18.066,-14.648,0
1594927682.126,-17.578,-52.246,-17.578,-19.531,0
1594927682.130,-24.902,-52.246,-28.809,-23.926,0
1594927682.134,-29.785,-46.875,-33.691,-21.973,0
1594927682.138,-18.066,-36.621,-29.297,-12.695,0
1594927682.141,-23.926,-35.156,-25.391,-20.996,0
1594927682.145,-33.691,-35.156,-24.902,-28.320,0
1594927682.149,-39.551,-37.109,-25.391,-27.344,0
1594927682.153,-42.480,-44.434,-25.391,-28.809,0
1594927682.157,-40.039,-40.039,-29.297,-33.691,0
1594927682.151,-36.621,-38.574,-36.133,-41.016,0
1594927682.155,-35.156,-41.016,-34.668,-45.410,0
1594927682.159,-30.273,-35.156,-27.344,-45.410,0
1594927682.163,-39.551,-38.574,-30.273,-48.828,0
1594927682.167,-51.270,-39.551,-33.203,-52.246,0
1594927682.171,-42.969,-41.016,-38.086,-47.363,0
1594927682.175,-42.969,-46.387,-35.156,-40.039,0
1594927682.178,-53.711,-40.527,-33.691,-41.016,0
1594927682.182,-50.781,-39.062,-38.086,-42.969,0
1594927682.186,-47.363,-35.645,-34.668,-41.992,0
1594927682.190,-46.387,-28.320,-27.344,-43.457,0
1594927682.194,-48.340,-27.344,-27.344,-46.387,0
1594927682.207,-39.062,-34.180,-35.645,-46.387,0
1594927682.211,-38.574,-37.598,-35.645,-37.598,0
1594927682.215,-42.969,-29.297,-31.738,-36.133,0
1594927682.219,-35.645,-23.438,-32.715,-43.457,0
1594927682.223,-39.062,-25.879,-31.738,-42.480,0
1594927682.227,-43.457,-28.320,-31.250,-29.297,0
1594927682.231,-43.457,-29.785,-27.344,-28.320,0
1594927682.234,-42.969,-31.250,-22.949,-34.180,0
1594927682.238,-40.527,-30.762,-22.949,-28.809,0
1594927682.242,-44.922,-27.832,-25.391,-32.227,0
1594927682.246,-45.898,-32.715,-33.203,-35.156,0
1594927682.250,-49.316,-29.297,-36.621,-34.180,0
1594927682.245,-48.340,-20.020,-33.203,-36.133,0
1594927682.249,-38.574,-20.508,-31.250,-27.832,0
1594927682.253,-34.180,-20.996,-35.645,-29.785,0
1594927682.257,-30.273,-24.902,-38.574,-29.297,0
1594927682.261,-29.297,-25.391,-34.668,-34.668,0
1594927682.265,-33.691,-22.461,-36.133,-37.598,0
1594927682.269,-43.457,-24.414,-34.180,-34.180,0
1594927682.272,-49.316,-27.344,-29.297,-41.992,0
1594927682.276,-39.551,-31.738,-28.320,-33.691,0
1594927682.280,-31.738,-33.691,-27.344,-28.320,0
1594927682.284,-29.785,-30.273,-29.785,-35.156,0
1594927682.288,-38.086,-36.133,-31.250,-41.016,0
1594927682.301,-45.410,-41.504,-31.738,-45.898,0
1594927682.305,-44.922,-46.875,-33.203,-36.133,0
1594927682.309,-37.598,-43.945,-24.414,-38.086,0
1594927682.313,-34.180,-34.668,-25.879,-50.781,0
1594927682.317,-27.832,-32.715,-36.621,-55.664,0
1594927682.321,-15.625,-32.227,-39.551,-47.363,0
1594927682.325,-28.320,-33.691,-38.086,-42.480,0
1594927682.328,-43.457,-32.715,-33.691,-34.668,0
1594927682.332,-47.852,-35.645,-30.273,-17.090,0
1594927682.336,-48.340,-34.668,-24.414,-14.648,0
1594927682.340,-42.969,-26.855,-30.273,-13.672,0
1594927682.344,-44.434,-29.785,-32.715,-12.695,0
1594927682.339,-43.945,-31.250,-20.996,-21.973,0
1594927682.343,-41.992,-22.461,-25.391,-26.367,0
1594927682.347,-38.574,-33.203,-30.762,-26.855,0
1594927682.351,-35.645,-36.621,-32.715,-27.832,0
1594927682.355,-31.250,-32.227,-29.297,-29.785,0
1594927682.359,-34.668,-34.180,-25.879,-21.973,0
1594927682.363,-41.504,-31.738,-28.809,-12.695,0
1594927682.366,-36.133,-30.273,-30.273,-20.508,0
1594927682.370,-32.715,-33.691,-30.273,-23.438,0
1594927682.374,-37.109,-32.715,-28.320,-18.066,0
1594927682.378,-33.203,-25.391,-28.320,-23.926,0
1594927682.382,-32.227,-22.949,-38.086,-29.297,0
1594927682.395,-26.855,-24.902,-40.039,-25.879,0
1594927682.399,-22.461,-27.344,-39.062,-19.043,0
1594927682.403,-33.203,-26.367,-30.273,-28.320,0
1594927682.407,-33.691,-31.738,-24.902,-33.691,0
1594927682.411,-25.391,-28.809,-28.320,-24.414,0
1594927682.415,-31.738,-27.832,-33.203,-28.809,0
1594927682.419,-35.156,-30.273,-38.086,-31.250,0
1594927682.422,-30.273,-23.926,-29.297,-26.367,0
1594927682.426,-30.273,-22.461,-28.320,-29.785,0
1594927682.430,-37.109,-24.414,-35.645,-29.297,0
1594927682.434,-42.480,-25.391,-28.320,-26.367,0
1594927682.438,-50.781,-17.090,-19.531,-28.809,0
1594927682.434,-44.434,-20.020,-20.020,-28.809,0
1594927682.438,-34.668,-30.762,-25.391,-26.367,0
1594927682.442,-31.738,-38.086,-26.367,-25.391,0
1594927682.446,-24.902,-40.039,-26.367,-22.949,0
1594927682.450,-23.926,-40.527,-33.691,-19.531,0
1594927682.454,-30.762,-38.574,-42.480,-16.602,0
1594927682.458,-31.250,-33.691,-38.086,-25.879,0
1594927682.461,-33.691,-29.785,-27.832,-35.645,0
1594927682.465,-37.598,-22.461,-31.738,-32.227,0
1594927682.469,-38.086,-21.484,-31.250,-30.762,0
1594927682.473,-39.062,-22.461,-34.668,-33.203,0
1594927682.477,-33.691,-24.414,-28.320,-32.715,0
1594927682.490,-29.785,-31.250,-24.414,-30.762,0
1594927682.494,-27.832,-28.320,-33.203,-30.762,0
1594927682.498,-25.879,-37.109,-35.156,-29.785,0
1594927682.502,-25.879,-37.109,-30.762,-28.320,0
1594927682.506,-30.273,-33.691,-30.762,-25.879,0
1594927682.510,-36.621,-35.156,-46.387,-20.996,0
1594927682.514,-34.180,-37.109,-43.457,-17.090,0
1594927682.517,-37.598,-36.621,-40.039,-21.484,0
1594927682.521,-36.621,-34.180,-46.387,-27.832,0
1594927682.525,-31.250,-31.250,-30.762,-26.367,0
1594927682.529,-25.391,-32.715,-17.578,-25.391,0
1594927682.533,-29.297,-48.340,-22.949,-28.809,0
1594927682.526,-38.086,-55.664,-34.180,-35.645,0
1594927682.530,-41.504,-42.969,-39.062,-37.109,0
1594927682.534,-41.504,-42.969,-35.645,-28.320,0
1594927682.538,-41.016,-46.875,-38.086,-29.785,0
1594927682.542,-48.828,-41.992,-40.527,-36.133,0
1594927682.546,-43.945,-37.598,-38.574,-31.738,0
1594927682.550,-30.762,-35.645,-40.527,-28.809,0
1594927682.553,-31.250,-32.227,-39.551,-23.926,0
1594927682.557,-44.922,-36.621,-45.898,-20.508,0
1594927682.561,-46.875,-39.551,-43.457,-18.066,0
1594927682.565,-42.480,-36.133,-38.574,-20.996,0
1594927682.569,-39.062,-31.738,-39.062,-16.113,0
1594927682.582,-41.016,-33.203,-33.691,-15.137,0
1594927682.586,-36.621,-47.852,-35.645,-18.555,0
1594927682.590,-25.879,-45.898,-40.039,-21.484,0
1594927682.594,-27.832,-38.574,-37.598,-22.461,0
1594927682.598,-30.273,-38.574,-33.203,-22.461,0
1594927682.602,-31.738,-36.133,-38.086,-29.297,0
1594927682.606,-31.738,-32.227,-40.039,-25.391,0
1594927682.609,-41.504,-31.250,-36.621,-28.809,0
1594927682.613,-48.828,-39.062,-35.645,-39.062,0
1594927682.617,-48.340,-45.898,-34.668,-29.785,0
1594927682.621,-41.504,-44.922,-34.180,-15.625,0
1594927682.625,-39.551,-36.133,-30.273,-13.184,0
1594927682.620,-45.410,-30.762,-27.832,-17.090,0
1594927682.624,-40.039,-25.391,-30.762,-20.508,0
1594927682.628,-35.156,-26.367,-34.180,-25.879,0
1594927682.632,-42.969,-33.203,-33.203,-30.762,0
1594927682.636,-43.457,-32.715,-33.203,-32.715,0
1594927682.640,-42.969,-28.809,-35.645,-37.109,0
1594927682.644,-49.316,-21.973,-35.645,-36.621,0
1594927682.647,-41.016,-16.113,-34.668,-32.227,0
1594927682.651,-40.039,-18.066,-30.273,-32.715,0
1594927682.655,-47.852,-20.020,-25.879,-36.133,0
1594927682.659,-40.039,-25.879,-28.320,-38.086,0
1594927682.663,-27.344,-21.973,-32.227,-43.945,0
1594927682.676,-30.762,-20.996,-29.297,-46.875,0
1594927682.680,-42.480,-23.438,-34.180,-35.645,0
1594927682.684,-44.922,-19.043,-30.273,-31.250,0
1594927682.688,-43.945,-18.555,-23.926,-35.645,0
1594927682.692,-37.109,-15.625,-29.785,-32.715,0
1594927682.696,-33.691,-15.137,-32.715,-37.598,0
1594927682.700,-39.551,-22.949,-37.109,-36.133,0
1594927682.703,-41.504,-21.484,-34.180,-33.691,0
1594927682.707,-47.363,-22.949,-32.715,-39.062,0
1594927682.711,-49.316,-28.809,-39.062,-40.527,0
1594927682.715,-46.387,-27.344,-37.598,-36.621,0
1594927682.719,-40.039,-23.926,-28.809,-35.156,0
1594927682.715,-29.785,-17.578,-26.367,-30.273,0
1594927682.719,-30.273,-13.184,-27.344,-20.996,0
1594927682.723,-31.250,-20.508,-17.578,-26.855,0
1594927682.727,-35.156,-25.879,-17.578,-33.691,0
1594927682.731,-36.621,-20.508,-23.926,-34.180,0
1594927682.735,-33.691,-20.996,-20.508,-32.227,0
1594927682.739,-33.203,-21.484,-22.461,-33.691,0
1594927682.742,-27.832,-21.973,-23.926,-27.344,0
1594927682.746,-18.066,-21.484,-22.461,-20.996,0
1594927682.750,-20.508,-14.160,-20.020,-22.461,0
1594927682.754,-24.902,-14.648,-26.367,-21.973,0
1594927682.758,-20.508,-17.578,-29.297,-29.297,2
1594927682.770,-23.438,-19.043,-27.344,-29.297,0
1594927682.774,-43.945,-21.973,-33.691,-32.715,0
1594927682.778,-52.246,-25.391,-38.086,-38.574,0
1594927682.782,-38.574,-29.785,-35.156,-33.203,0
1594927682.786,-34.668,-32.715,-30.762,-30.273,0
1594927682.790,-42.969,-32.715,-32.227,-34.668,0
1594927682.794,-51.270,-38.086,-40.527,-42.480,0
1594927682.797,-43.945,-39.551,-36.133,-44.434,0
1594927682.801,-35.156,-33.691,-27.832,-45.410,0
1594927682.805,-34.668,-31.738,-24.414,-41.504,0
1594927682.809,-28.809,-30.273,-24.902,-42.480,0
1594927682.813,-28.809,-29.297,-23.438,-38.574,0
1594927682.807,-28.809,-26.855,-20.508,-31.250,0
1594927682.811,-32.227,-31.250,-20.996,-29.785,0
1594927682.815,-41.016,-35.156,-21.484,-34.180,0
1594927682.819,-37.109,-36.133,-26.367,-40.039,0
1594927682.823,-37.109,-36.133,-24.902,-30.273,0
1594927682.827,-42.480,-31.738,-22.461,-38.086,0
1594927682.831,-35.645,-27.344,-25.391,-39.062,0
1594927682.834,-39.062,-28.320,-24.414,-31.738,0
1594927682.838,-41.504,-29.297,-26.855,-39.062,0
1594927682.842,-33.691,-29.297,-27.344,-36.621,0
1594927682.846,-31.250,-24.902,-21.484,-37.109,0
1594927682.850,-30.273,-26.367,-29.297,-36.133,0
1594927682.864,-41.992,-37.109,-26.855,-33.203,0
1594927682.868,-45.410,-44.922,-24.902,-38.574,0
1594927682.872,-34.180,-48.340,-27.832,-37.598,0
1594927682.876,-30.273,-45.410,-18.066,-30.273,0
1594927682.880,-38.086,-39.551,-18.066,-28.320,0
1594927682.884,-41.992,-35.156,-28.320,-28.809,0
1594927682.888,-42.480,-33.203,-32.227,-26.367,0
1594927682.891,-40.527,-32.227,-32.227,-27.344,0
1594927682.895,-30.762,-32.227,-32.715,-38.086,0
1594927682.899,-28.809,-30.762,-28.809,-34.668,0
1594927682.903,-29.297,-27.832,-27.344,-28.809,0
1594927682.907,-20.508,-27.832,-29.785,-32.227,0
1594927682.901,-13.184,-23.438,-26.855,-33.203,0
1594927682.905,-21.973,-24.414,-24.902,-28.320,0
1594927682.909,-30.273,-24.902,-22.461,-23.926,0
1594927682.913,-29.785,-23.926,-26.855,-24.414,0
1594927682.917,-37.598,-26.367,-30.273,-26.855,0
1594927682.921,-43.457,-31.250,-27.832,-24.902,0
1594927682.925,-36.621,-34.180,-26.855,-22.949,0
1594927682.928,-33.203,-31.250,-27.344,-28.809,0
1594927682.932,-35.645,-35.645,-32.715,-23.926,0
1594927682.936,-31.250,-44.922,-20.508,-27.832,0
1594927682.940,-30.762,-45.898,-18.066,-38.086,0
1594927682.944,-37.109,-38.574,-21.973,-41.016,0
1594927682.959,-41.504,-39.062,-16.113,-30.273,0
1594927682.963,-42.969,-42.969,-19.043,-24.902,0
1594927682.967,-40.039,-37.598,-17.090,-33.691,0
1594927682.971,-44.434,-37.109,-17.090,-41.504,0
1594927682.975,-59.082,-43.457,-23.926,-42.969,0
1594927682.979,-62.012,-42.480,-30.762,-38.086,0
1594927682.983,-49.316,-36.133,-32.715,-35.156,0
1594927682.986,-49.316,-29.297,-24.902,-36.621,0
1594927682.990,-49.316,-33.203,-28.809,-40.527,0
1594927682.994,-42.480,-32.715,-34.180,-42.969,0
1594927682.998,-41.992,-32.227,-33.203,-41.504,0
1594927683.002,-34.668,-34.668,-30.273,-33.203,0
1594927682.995,-26.367,-32.227,-28.320,-28.320,0
1594927682.999,-35.156,-32.715,-27.344,-23.438,0
1594927683.003,-35.645,-32.227,-29.297,-19.043,0
1594927683.007,-27.344,-36.621,-28.809,-24.902,0
1594927683.011,-22.949,-34.668,-21.973,-28.809,0
1594927683.015,-20.020,-30.762,-24.902,-29.785,0
1594927683.019,-19.043,-25.391,-26.855,-25.879,0
1594927683.022,-22.949,-18.555,-22.461,-31.250,0
1594927683.026,-30.273,-25.391,-28.320,-28.320,0
1594927683.030,-31.738,-28.320,-27.344,-21.484,0
1594927683.034,-21.484,-20.508,-19.043,-19.531,0
1594927683.038,-27.344,-19.043,-18.555,-12.207,0
1594927683.051,-49.316,-29.785,-20.508,-9.277,0
1594927683.055,-53.223,-39.551,-25.391,-13.184,0
1594927683.059,-58.594,-37.109,-27.832,-15.137,0
1594927683.063,-57.129,-36.133,-30.273,-15.137,0
1594927683.067,-42.969,-25.879,-26.855,-16.113,0
1594927683.071,-47.363,-22.461,-28.320,-28.320,0
1594927683.075,-45.898,-27.832,-47.852,-37.598,0
1594927683.078,-34.180,-25.879,-53.711,-38.086,0
1594927683.082,-28.320,-26.855,-37.109,-34.180,0
1594927683.086,-27.344,-26.367,-30.273,-34.180,0
1594927683.090,-40.527,-32.227,-34.668,-43.945,0
1594927683.094,-44.922,-36.133,-38.574,-52.246,0
1594927683.089,-38.086,-31.738,-35.645,-50.293,0
1594927683.093,-35.156,-24.414,-31.738,-43.945,0
1594927683.097,-25.879,-23.926,-33.691,-49.805,0
1594927683.101,-33.691,-28.809,-35.156,-41.504,0
1594927683.105,-45.410,-24.902,-30.762,-26.855,0
1594927683.109,-44.922,-23.438,-27.832,-20.508,0
1594927683.113,-41.016,-21.484,-25.391,-22.461,0
1594927683.116,-36.621,-18.555,-22.949,-25.391,0
1594927683.120,-33.691,-18.555,-30.273,-24.414,0
1594927683.124,-32.715,-15.625,-29.785,-20.996,0
1594927683.128,-34.668,-14.160,-24.902,-34.180,0
1594927683.132,-33.203,-21.973,-24.902,-36.621,0
1594927683.145,-29.785,-25.391,-25.391,-26.855,0
1594927683.149,-26.367,-21.484,-28.320,-26.367,0
1594927683.153,-28.320,-17.578,-21.973,-28.320,0
1594927683.157,-28.809,-21.484,-20.996,-37.109,0
1594927683.161,-35.156,-32.227,-25.391,-37.109,0
1594927683.165,-43.457,-33.203,-29.297,-29.785,0
1594927683.169,-39.062,-27.832,-31.250,-18.066,0
1594927683.172,-32.227,-21.484,-21.973,-17.090,0
1594927683.176,-30.762,-27.344,-21.484,-20.020,0
1594927683.180,-28.320,-23.438,-27.344,-21.973,0
1594927683.184,-31.250,-12.207,-28.320,-21.484,0
1594927683.188,-39.062,-21.973,-30.273,-18.066,0
1594927683.184,-42.480,-30.273,-34.668,-19.531,0
1594927683.188,-45.898,-32.227,-33.203,-20.508,0
1594927683.192,-39.551,-27.344,-26.855,-21.973,0
1594927683.196,-36.133,-21.973,-27.832,-23.438,0
1594927683.200,-42.480,-18.555,-25.879,-23.438,0
1594927683.204,-49.316,-21.484,-28.320,-26.855,0
1594927683.208,-49.316,-24.902,-29.297,-28.320,0
1594927683.211,-48.340,-22.949,-22.461,-19.531,0
1594927683.215,-47.363,-25.391,-26.367,-14.648,0
1594927683.219,-41.016,-27.344,-22.949,-22.461,0
1594927683.223,-39.551,-31.738,-19.531,-29.297,0
1594927683.227,-39.551,-32.715,-22.461,-25.879,0
1594927683.239,-34.180,-31.738,-26.855,-23.926,0
1594927683.243,-31.250,-33.203,-36.133,-23.438,0
1594927683.247,-31.250,-31.250,-36.621,-29.297,0
1594927683.251,-34.180,-31.738,-41.016,-30.762,0
1594927683.255,-41.504,-34.668,-37.109,-29.785,0
1594927683.259,-39.551,-31.250,-39.551,-36.133,0
1594927683.263,-33.203,-32.227,-33.691,-29.297,0
1594927683.266,-38.086,-36.621,-19.531,-27.832,0
1594927683.270,-43.945,-34.668,-26.367,-40.039,0
1594927683.274,-36.133,-32.227,-29.785,-50.781,0
1594927683.278,-41.504,-31.738,-29.297,-49.316,0
1594927683.282,-49.316,-25.391,-31.250,-56.152,0
1594927683.276,-37.109,-21.484,-29.297,-55.176,0
1594927683.280,-41.992,-24.414,-26.367,-42.969,0
1594927683.284,-44.922,-24.902,-28.809,-44.922,0
1594927683.288,-36.621,-26.367,-30.762,-38.574,0
1594927683.292,-35.156,-26.855,-30.273,-30.762,0
1594927683.296,-39.062,-24.902,-32.715,-31.738,0
1594927683.300,-37.109,-30.273,-37.598,-37.109,0
1594927683.303,-43.945,-31.250,-38.574,-35.156,0
1594927683.307,-44.922,-30.762,-39.062,-30.762,0
1594927683.311,-40.527,-28.320,-37.109,-20.020,0
1594927683.315,-42.969,-24.902,-33.203,-22.949,0
1594927683.319,-47.363,-30.273,-32.715,-31.250,0
1594927683.332,-50.293,-32.715,-34.668,-35.156,0
1594927683.336,-41.504,-32.227,-39.551,-36.133,0
1594927683.340,-41.504,-26.367,-38.574,-35.645,0
1594927683.344,-40.527,-24.414,-24.902,-30.273,0
1594927683.348,-28.320,-32.227,-20.508,-24.902,0
1594927683.352,-23.438,-23.438,-25.879,-29.297,0
1594927683.356,-31.250,-21.973,-25.879,-20.508,0
1594927683.359,-31.250,-19.043,-23.926,-23.438,0
1594927683.363,-19.043,-11.719,-22.949,-28.809,0
1594927683.367,-22.461,-15.137,-21.973,-25.879,0
1594927683.371,-25.391,-20.996,-27.344,-27.344,0
1594927683.375,-28.320,-23.926,-28.809,-28.320,0
1594927683.371,-40.039,-25.879,-29.297,-31.250,0
1594927683.375,-47.363,-40.039,-33.691,-34.180,0
1594927683.379,-38.574,-43.457,-29.785,-33.203,0
1594927683.383,-31.250,-33.203,-30.273,-29.297,0
1594927683.387,-37.109,-32.715,-31.250,-39.062,0
1594927683.391,-39.551,-33.691,-34.180,-45.898,0
1594927683.395,-37.109,-26.367,-33.203,-34.180,0
1594927683.398,-45.898,-18.555,-31.250,-32.227,0
1594927683.402,-51.270,-34.180,-31.250,-40.039,0
1594927683.406,-43.945,-29.785,-28.809,-31.738,0
1594927683.410,-36.133,-15.625,-26.855,-30.273,0
1594927683.414,-39.551,-22.461,-24.414,-32.715,0
1594927683.426,-37.598,-26.367,-24.414,-29.785,0
1594927683.430,-28.320,-30.273,-30.762,-33.203,0
1594927683.434,-37.109,-30.762,-29.785,-33.203,0
1594927683.438,-41.992,-36.133,-33.203,-30.273,0
1594927683.442,-51.758,-42.480,-31.250,-31.250,0
1594927683.446,-54.199,-27.344,-29.785,-30.273,0
1594927683.450,-44.434,-20.996,-29.785,-35.156,0
1594927683.453,-41.992,-27.344,-23.438,-43.945,0
1594927683.457,-35.645,-31.738,-23.926,-33.691,0
1594927683.461,-33.203,-35.156,-30.762,-33.691,0
1594927683.465,-37.598,-33.691,-33.691,-31.250,0
1594927683.469,-38.574,-38.086,-27.344,-22.949,0
1594927683.465,-37.109,-45.410,-20.020,-22.949,0
1594927683.469,-30.273,-36.621,-22.949,-20.020,0
1594927683.473,-34.180,-31.738,-29.297,-33.691,0
1594927683.477,-44.922,-32.227,-30.273,-39.551,0
1594927683.481,-32.227,-28.809,-28.809,-28.809,0
1594927683.485,-27.344,-26.855,-30.762,-28.809,0
1594927683.489,-27.832,-34.180,-28.809,-33.691,0
1594927683.492,-29.297,-39.551,-20.996,-30.762,0
1594927683.496,-46.387,-38.574,-25.391,-27.344,0
1594927683.500,-59.082,-41.504,-27.344,-32.227,0
1594927683.504,-55.176,-46.387,-18.555,-37.598,0
1594927683.508,-43.457,-48.340,-14.160,-30.273,0
1594927683.520,-41.504,-41.016,-22.461,-35.645,0
1594927683.524,-58.105,-40.039,-29.785,-46.387,0
1594927683.528,-60.059,-40.527,-26.367,-45.898,0
1594927683.532,-50.781,-39.551,-28.320,-51.270,0
1594927683.536,-39.551,-37.598,-32.715,-48.340,0
1594927683.540,-40.039,-32.227,-39.062,-47.363,0
1594927683.544,-45.410,-36.133,-35.156,-38.574,0
1594927683.547,-37.598,-35.156,-20.508,-32.715,0
1594927683.551,-32.715,-29.785,-23.926,-36.133,0
1594927683.555,-33.203,-34.668,-22.461,-39.062,0
1594927683.559,-27.832,-33.691,-20.508,-35.156,0
1594927683.563,-25.879,-32.715,-21.973,-35.156,0
1594927683.557,-29.785,-37.109,-22.461,-39.062,0
1594927683.561,-28.809,-34.180,-22.461,-30.762,0
1594927683.565,-25.391,-29.297,-29.785,-34.180,0
1594927683.569,-31.250,-38.086,-40.039,-39.062,0
1594927683.573,-42.480,-38.086,-35.156,-33.691,0
1594927683.577,-46.875,-34.180,-31.250,-35.156,0
1594927683.581,-44.922,-35.645,-32.715,-41.016,0
1594927683.584,-41.504,-33.203,-25.879,-37.598,0
1594927683.588,-35.156,-35.156,-25.879,-29.297,0
1594927683.592,-26.367,-33.691,-27.344,-34.180,0
1594927683.596,-30.762,-29.785,-22.461,-38.086,0
1594927683.600,-41.016,-32.227,-23.926,-34.668,0
1594927683.614,-42.969,-34.668,-31.250,-40.039,0
1594927683.618,-37.109,-33.203,-32.715,-35.645,0
1594927683.622,-30.762,-32.227,-26.855,-32.227,0
1594927683.626,-35.156,-32.227,-30.273,-33.691,0
1594927683.630,-27.344,-29.297,-31.738,-29.297,0
1594927683.634,-20.508,-29.785,-29.785,-30.273,0
1594927683.638,-18.066,-27.344,-31.250,-24.414,0
1594927683.641,-15.137,-19.531,-25.879,-19.043,1
1594927683.645,-14.648,-22.461,-20.020,-24.902,0
1594927683.649,-21.973,-32.227,-25.391,-31.250,0
1594927683.653,-24.902,-28.809,-23.438,-22.949,0
1594927683.657,-18.066,-23.438,-23.438,-24.902,0
1594927683.651,-24.902,-26.855,-28.320,-24.902,0
1594927683.655,-20.996,-22.461,-30.762,-17.090,0
1594927683.659,-18.066,-24.414,-31.250,-25.879,0
1594927683.663,-26.367,-31.738,-28.809,-27.832,0
1594927683.667,-21.973,-22.461,-24.902,-30.762,0
1594927683.671,-21.484,-18.066,-20.508,-28.809,0
1594927683.675,-32.227,-21.484,-20.996,-30.273,0
1594927683.678,-31.738,-25.391,-22.949,-39.551,0
1594927683.682,-32.227,-24.902,-27.832,-39.062,0
1594927683.686,-30.273,-21.973,-24.414,-38.574,0
1594927683.690,-27.832,-22.461,-20.020,-36.621,0
1594927683.694,-37.109,-26.855,-21.484,-36.621,0
1594927683.709,-38.574,-31.738,-22.461,-36.133,0
1594927683.713,-38.574,-37.109,-26.855,-35.156,0
1594927683.717,-39.062,-37.109,-30.273,-48.340,0
1594927683.721,-37.109,-33.203,-26.367,-56.641,0
1594927683.725,-49.316,-27.832,-26.367,-43.457,0
1594927683.729,-43.457,-31.250,-26.367,-36.133,0
1594927683.733,-39.062,-45.410,-22.949,-33.691,0
1594927683.736,-47.852,-38.574,-23.926,-31.738,0
1594927683.740,-45.410,-28.809,-23.438,-29.785,0
1594927683.744,-33.203,-26.367,-24.414,-28.809,0
1594927683.748,-24.414,-24.902,-23.438,-29.297,0
1594927683.752,-25.391,-25.391,-21.973,-32.227,0
1594927683.745,-24.414,-23.926,-31.738,-32.227,0
1594927683.749,-17.090,-24.414,-33.691,-28.320,0
1594927683.753,-29.297,-27.832,-32.715,-35.645,0
1594927683.757,-32.715,-31.738,-37.109,-41.016,0
1594927683.761,-23.926,-26.367,-36.133,-36.133,0
1594927683.765,-26.367,-24.414,-37.598,-35.645,0
1594927683.769,-22.949,-32.715,-39.551,-37.598,0
1594927683.772,-26.855,-29.297,-32.227,-30.273,0
1594927683.776,-35.156,-24.414,-29.785,-18.066,0
1594927683.780,-40.527,-28.320,-30.273,-11.719,0
1594927683.784,-39.551,-33.203,-27.344,-16.602,0
1594927683.788,-37.109,-36.621,-28.809,-10.742,0
1594927683.801,-41.504,-39.551,-27.344,-17.578,0
1594927683.805,-43.945,-36.621,-32.227,-25.391,0
1594927683.809,-38.574,-30.762,-28.809,-22.949,0
1594927683.813,-36.133,-31.738,-23.926,-16.113,0
1594927683.817,-34.180,-31.738,-26.367,-21.973,0
1594927683.821,-40.527,-35.156,-31.250,-34.180,0
1594927683.825,-46.387,-36.621,-29.785,-28.320,0
1594927683.828,-46.387,-33.203,-30.273,-29.297,0
1594927683.832,-51.758,-34.180,-28.320,-34.180,0
1594927683.836,-47.363,-40.039,-19.043,-32.227,0
1594927683.840,-40.039,-28.809,-24.414,-31.738,0
1594927683.844,-47.363,-16.602,-24.414,-28.320,0
1594927683.839,-51.270,-25.879,-22.461,-32.715,0
1594927683.843,-45.410,-31.250,-21.484,-33.203,0
1594927683.847,-40.039,-27.832,-22.949,-37.598,0
1594927683.851,-41.992,-26.367,-30.273,-42.480,0
1594927683.855,-41.016,-25.879,-28.320,-32.715,0
1594927683.859,-39.551,-31.250,-27.832,-30.273,0
1594927683.863,-37.109,-33.691,-23.438,-35.156,0
1594927683.866,-34.668,-29.785,-20.996,-34.180,0
1594927683.870,-32.227,-29.785,-28.809,-29.785,0
1594927683.874,-29.297,-30.762,-24.414,-33.691,0
1594927683.878,-24.414,-27.344,-24.902,-44.922,0
1594927683.882,-17.578,-24.902,-28.809,-45.898,0
1594927683.895,-21.973,-22.461,-29.785,-43.457,0
1594927683.899,-28.809,-23.438,-33.203,-39.551,0
1594927683.903,-30.273,-25.879,-19.531,-35.645,0
1594927683.907,-25.391,-24.414,-24.902,-44.922,0
1594927683.911,-29.785,-24.902,-33.691,-50.781,0
1594927683.915,-41.016,-27.344,-31.250,-43.457,0
1594927683.919,-47.852,-31.738,-31.250,-33.691,0
1594927683.922,-48.828,-33.691,-24.414,-31.738,0
1594927683.926,-44.434,-30.273,-24.414,-39.062,0
1594927683.930,-45.898,-26.855,-27.832,-39.551,0
1594927683.934,-49.316,-23.926,-27.832,-30.273,0
1594927683.938,-46.387,-20.508,-28.320,-25.879,0
1594927683.934,-39.062,-31.250,-28.809,-28.320,0
1594927683.938,-32.227,-37.598,-30.273,-27.832,0
1594927683.942,-23.438,-37.598,-26.367,-23.438,0
1594927683.946,-22.949,-37.598,-27.832,-22.461,0
1594927683.950,-23.438,-36.621,-30.762,-21.973,0
1594927683.954,-30.273,-39.062,-30.273,-23.926,0
1594927683.958,-41.504,-31.738,-23.438,-24.902,0
1594927683.961,-41.504,-28.809,-19.531,-18.555,0
1594927683.965,-35.645,-29.785,-29.785,-16.602,0
1594927683.969,-28.320,-24.414,-30.273,-21.973,0
1594927683.973,-25.391,-19.043,-26.367,-29.297,0
1594927683.977,-34.668,-20.508,-26.367,-28.320,0
1594927683.989,-27.344,-20.508,-23.438,-22.949,0
1594927683.993,-15.625,-21.973,-11.230,-24.902,0
1594927683.997,-19.043,-29.297,-3.418,-29.297,0
1594927684.001,-31.738,-31.738,-13.672,-28.320,0
1594927684.005,-42.969,-29.297,-20.996,-28.809,0
1594927684.009,-54.199,-31.738,-26.367,-32.715,0
1594927684.013,-50.781,-36.621,-32.715,-36.133,0
1594927684.016,-35.645,-32.227,-28.809,-35.645,0
1594927684.020,-36.133,-30.762,-27.832,-31.738,0
1594927684.024,-26.855,-39.062,-33.691,-35.645,0
1594927684.028,-24.902,-41.504,-30.273,-37.598,0
1594927684.032,-22.949,-39.551,-30.762,-29.297,0
1594927684.045,-12.695,-41.992,-47.852,-35.156,0
1594927684.049,-15.625,-38.574,-36.133,-39.551,0
1594927684.053,-21.973,-34.668,-23.926,-46.387,0
1594927684.057,-29.785,-38.574,-29.785,-45.898,0
1594927684.061,-48.340,-27.832,-22.949,-35.156,0
1594927684.065,-60.059,-17.090,-18.066,-30.273,0
1594927684.069,-71.289,-22.461,-20.996,-29.297,0
1594927684.072,-81.055,-27.832,-26.855,-32.227,0
1594927684.076,-66.406,-20.996,-29.297,-23.438,0
1594927684.080,-41.992,-15.625,-31.738,-23.926,0
1594927684.084,-40.039,-17.578,-31.250,-41.992,0
1594927684.088,-38.574,-20.996,-30.762,-46.875,0
1594927684.082,-25.391,-23.926,-34.668,-34.180,0
1594927684.086,-20.996,-29.297,-39.551,-34.668,0
1594927684.090,-24.902,-22.461,-41.016,-36.621,0
1594927684.094,-33.203,-26.367,-38.086,-32.715,0
1594927684.098,-43.945,-34.668,-37.109,-43.457,0
1594927684.102,-40.527,-32.715,-37.598,-39.062,0
1594927684.106,-42.969,-28.809,-39.062,-32.227,0
1594927684.109,-47.363,-25.879,-39.551,-41.504,0
1594927684.113,-34.180,-26.367,-40.039,-35.156,0
1594927684.117,-31.250,-26.367,-37.598,-26.855,0
1594927684.121,-25.879,-24.902,-34.180,-22.949,0
1594927684.125,-20.996,-25.391,-31.738,-7.324,0
1594927684.120,-27.344,-28.320,-27.832,-15.625,0
1594927684.124,-26.855,-32.715,-31.738,-31.250,0
1594927684.128,-18.555,-35.156,-33.691,-30.273,0
1594927684.132,-20.996,-29.785,-33.203,-28.809,0
1594927684.136,-25.879,-18.555,-31.250,-27.832,0
1594927684.140,-20.996,-14.160,-25.391,-31.250,0
1594927684.144,-20.508,-25.879,-20.996,-32.227,0
1594927684.147,-28.320,-29.785,-19.531,-25.391,0
1594927684.151,-42.969,-30.273,-27.832,-27.832,0
1594927684.155,-44.434,-29.785,-26.855,-38.086,0
1594927684.159,-39.551,-26.367,-20.020,-36.621,0
1594927684.163,-54.199,-30.762,-23.438,-33.203,0
1594927684.176,-68.848,-34.180,-31.738,-44.922,0
1594927684.180,-68.359,-34.668,-27.344,-42.969,0
1594927684.184,-58.105,-35.156,-23.926,-42.969,0
1594927684.188,-52.734,-37.109,-29.297,-55.176,0
1594927684.192,-53.223,-36.133,-28.809,-51.758,0
1594927684.196,-43.457,-33.691,-30.273,-45.898,0
1594927684.200,-29.297,-25.879,-26.855,-37.598,0
1594927684.203,-29.297,-23.438,-20.996,-41.016,0
1594927684.207,-36.621,-24.414,-24.414,-46.875,0
1594927684.211,-34.180,-26.367,-31.250,-37.598,0
1594927684.215,-29.297,-36.133,-40.527,-41.992,0
1594927684.219,-30.273,-31.738,-37.598,-45.410,0
1594927684.214,-31.250,-26.855,-36.133,-42.969,0
1594927684.218,-33.691,-33.203,-40.039,-43.945,0
1594927684.222,-40.527,-35.645,-39.062,-38.574,0
1594927684.226,-39.551,-33.691,-41.016,-37.598,0
1594927684.230,-40.527,-32.715,-37.109,-31.250,0
1594927684.234,-48.340,-34.668,-38.086,-25.879,0
1594927684.238,-48.828,-31.738,-45.898,-32.715,0
1594927684.241,-49.316,-31.738,-46.875,-39.551,0
1594927684.245,-43.945,-40.527,-44.922,-36.621,0
1594927684.249,-40.039,-42.969,-41.504,-38.574,0
1594927684.253,-43.457,-34.180,-37.598,-42.969,0
1594927684.257,-38.574,-31.738,-37.598,-35.645,0
1594927684.270,-32.715,-40.527,-41.504,-34.668,0
1594927684.274,-42.480,-43.945,-50.781,-38.086,0
1594927684.278,-55.664,-42.969,-49.316,-35.645,0
1594927684.282,-50.781,-46.387,-41.016,-40.527,0
1594927684.286,-44.434,-48.340,-41.016,-39.551,0
1594927684.290,-51.758,-52.246,-45.898,-47.363,0
1594927684.294,-52.734,-49.805,-45.898,-52.246,0
1594927684.297,-55.176,-42.480,-38.574,-43.457,0
1594927684.301,-63.477,-49.316,-38.086,-47.363,0
1594927684.305,-57.617,-51.758,-38.086,-54.688,0
1594927684.309,-47.363,-41.504,-40.527,-62.988,0
1594927684.313,-40.039,-33.203,-41.016,-63.965,0
1594927684.307,-37.598,-32.715,-41.992,-57.617,0
1594927684.311,-46.387,-34.180,-38.574,-49.316,0
1594927684.315,-57.617,-28.320,-36.621,-45.898,0
1594927684.319,-57.617,-30.273,-41.504,-40.527,0
1594927684.323,-56.641,-34.180,-38.086,-29.297,0
1594927684.327,-63.965,-31.738,-38.086,-40.039,0
1594927684.331,-58.105,-31.738,-40.527,-43.945,0
1594927684.334,-38.574,-30.273,-40.527,-34.668,0
1594927684.338,-29.297,-33.203,-37.109,-40.039,0
1594927684.342,-34.180,-35.156,-34.668,-33.203,0
1594927684.346,-32.715,-29.785,-38.086,-29.297,0
1594927684.350,-21.484,-28.320,-50.293,-29.297,0
1594927684.364,-24.414,-29.785,-61.523,-34.180,0
1594927684.368,-22.461,-28.809,-67.383,-30.273,0
1594927684.372,-16.602,-29.297,-48.828,-30.762,0
1594927684.376,-15.137,-32.227,-38.574,-28.320,0
1594927684.380,-20.508,-28.320,-47.363,-21.484,0
1594927684.384,-24.902,-27.344,-51.270,-23.438,0
1594927684.388,-25.391,-27.832,-54.199,-24.414,0
1594927684.391,-27.344,-24.902,-49.316,-17.090,0
1594927684.395,-23.438,-26.367,-53.223,-12.207,0
1594927684.399,-18.066,-28.809,-54.688,-15.625,0
1594927684.403,-19.531,-40.527,-43.945,-24.414,0
1594927684.407,-23.926,-51.270,-37.598,-20.996,0
1594927684.402,-21.973,-32.715,-35.645,-16.113,0
1594927684.406,-18.555,-30.273,-41.504,-34.668,0
1594927684.410,-25.879,-43.457,-41.992,-30.762,0
1594927684.414,-41.504,-51.758,-46.875,-22.461,0
1594927684.418,-60.547,-54.688,-51.270,-31.738,2
1594927684.422,-64.941,-46.387,-49.316,-29.297,0
1594927684.426,-46.875,-44.434,-48.340,-29.785,0
1594927684.429,-45.410,-44.922,-47.363,-35.645,0
1594927684.433,-48.340,-46.387,-47.363,-30.762,0
1594927684.437,-36.133,-49.316,-40.527,-27.344,0
1594927684.441,-38.574,-45.410,-39.062,-35.645,0
1594927684.445,-32.227,-43.457,-39.062,-35.156,0
1594927684.459,-17.578,-37.598,-35.645,-29.785,0
1594927684.463,-23.926,-39.062,-41.504,-32.227,0
1594927684.467,-22.949,-40.527,-38.086,-29.297,0
1594927684.471,-17.578,-36.133,-35.156,-32.715,0
1594927684.475,-27.832,-40.527,-44.434,-35.645,0
1594927684.479,-36.133,-40.527,-45.410,-27.832,0
1594927684.483,-30.273,-48.340,-44.434,-29.785,0
1594927684.486,-27.832,-59.570,-44.922,-28.809,0
1594927684.490,-29.785,-50.781,-45.898,-26.367,0
1594927684.494,-29.785,-45.410,-47.363,-31.250,0
1594927684.498,-40.527,-49.316,-50.781,-24.902,0
1594927684.502,-45.410,-49.805,-44.922,-20.996,0
1594927684.495,-54.199,-47.363,-40.527,-26.855,0
1594927684.499,-68.359,-44.434,-42.480,-30.273,0
1594927684.503,-70.312,-40.039,-43.457,-29.297,0
1594927684.507,-61.035,-39.551,-44.434,-24.414,0
1594927684.511,-54.688,-35.645,-45.410,-29.297,0
1594927684.515,-48.340,-31.738,-49.805,-35.156,0
1594927684.519,-36.621,-36.621,-44.922,-39.062,0
1594927684.522,-28.809,-36.133,-35.645,-32.715,0
1594927684.526,-17.578,-38.086,-40.527,-25.879,0
1594927684.530,-9.277,-41.504,-44.922,-28.809,0
1594927684.534,-8.789,-41.016,-40.039,-38.086,0
1594927684.538,-6.348,-34.668,-35.645,-39.062,0
1594927684.551,-15.137,-39.551,-37.109,-36.133,0
1594927684.555,-31.738,-48.828,-48.828,-23.926,0
1594927684.559,-41.016,-53.223,-47.852,-21.484,0
1594927684.563,-50.293,-52.246,-45.898,-31.250,0
1594927684.567,-64.941,-42.969,-44.922,-20.020,0
1594927684.571,-66.895,-45.898,-42.969,-12.207,0
1594927684.575,-57.617,-50.293,-50.781,-18.555,0
1594927684.578,-58.105,-47.852,-57.617,-24.414,0
1594927684.582,-51.270,-51.270,-43.945,-24.414,0
1594927684.586,-40.527,-63.477,-38.574,-22.461,0
1594927684.590,-37.598,-63.965,-42.969,-24.414,0
1594927684.594,-44.922,-48.828,-43.945,-18.066,0
1594927684.589,-50.293,-45.898,-48.828,-17.090,0
1594927684.593,-48.828,-51.270,-38.574,-22.461,0
1594927684.597,-48.340,-43.945,-36.133,-24.414,0
1594927684.601,-53.223,-41.016,-39.062,-33.203,0
1594927684.605,-67.871,-46.387,-37.109,-42.969,0
1594927684.609,-82.520,-41.016,-43.945,-59.082,0
1594927684.613,-73.242,-29.785,-33.691,-57.129,0
1594927684.616,-77.148,-25.391,-22.461,-60.059,0
1594927684.620,-101.074,-30.273,-29.785,-80.078,0
1594927684.624,-107.422,-29.297,-25.879,-94.238,0
1594927684.628,-120.605,-33.203,-20.996,-117.676,0
1594927684.632,-131.348,-35.645,-26.367,-133.301,0
1594927684.645,-127.930,-40.527,-25.391,-137.207,0
1594927684.649,-125.488,-55.176,-20.020,-139.648,0
1594927684.653,-115.723,-45.410,-12.695,-132.324,0
1594927684.657,-104.492,-37.109,-13.672,-126.465,0
1594927684.661,-106.445,-36.621,-20.020,-123.047,0
1594927684.665,-112.793,-35.156,-20.508,-113.770,0
1594927684.669,-108.887,-40.527,-24.414,-103.027,0
1594927684.672,-98.633,-38.574,-26.367,-103.516,0
1594927684.676,-86.914,-40.039,-26.855,-101.562,0
1594927684.680,-83.496,-46.387,-30.273,-87.402,0
1594927684.684,-90.332,-49.805,-34.668,-74.219,0
1594927684.688,-83.496,-48.828,-33.691,-64.941,0
1594927684.684,-64.453,-47.852,-37.598,-58.594,0
1594927684.688,-62.012,-54.199,-41.992,-44.434,0
1594927684.692,-60.059,-53.711,-41.504,-30.762,0
1594927684.696,-49.805,-48.828,-42.480,-25.391,0
1594927684.700,-38.086,-45.410,-40.039,-20.020,0
1594927684.704,-26.367,-40.039,-41.992,-15.137,0
1594927684.708,-13.184,-39.551,-40.527,-6.348,0
1594927684.711,-14.160,-45.410,-41.016,-4.395,0
1594927684.715,-14.160,-43.945,-47.852,-11.719,0
1594927684.719,-10.742,-47.852,-45.898,-16.113,0
1594927684.723,-17.578,-54.688,-42.969,-14.648,0
1594927684.727,-13.672,-50.293,-43.457,-5.859,0
1594927684.739,-8.301,-49.805,-48.828,-6.348,0
1594927684.743,-1.953,-58.594,-57.129,-8.789,0
1594927684.747,1.465,-55.664,-53.223,-10.742,0
1594927684.751,-11.719,-46.387,-49.805,-5.371,0
1594927684.755,-17.578,-45.898,-46.387,6.836,0
1594927684.759,-13.672,-45.898,-43.945,0.977,0
1594927684.763,-20.020,-51.270,-44.434,-6.348,0
1594927684.766,-27.344,-49.316,-39.551,-9.766,0
1594927684.770,-12.207,-38.086,-39.551,-17.090,0
1594927684.774,-15.625,-31.738,-38.574,-13.184,0
1594927684.778,-38.574,-35.645,-38.086,-14.648,0
1594927684.782,-45.898,-35.156,-34.180,-15.137,0
1594927684.776,-37.109,-36.621,-32.227,-12.207,0
1594927684.780,-25.879,-35.645,-37.109,-8.301,0
1594927684.784,-25.879,-32.227,-39.551,-15.625,0
1594927684.788,-27.344,-32.227,-44.922,-20.508,0
1594927684.792,-29.785,-32.227,-43.945,-19.531,0
1594927684.796,-35.156,-37.598,-38.574,-21.973,0
1594927684.800,-37.109,-41.992,-43.945,-15.137,0
1594927684.803,-31.738,-36.133,-40.039,-14.160,0
1594927684.807,-24.414,-35.645,-39.551,-22.461,0
1594927684.811,-26.855,-43.457,-50.781,-25.879,0
1594927684.815,-29.297,-41.504,-48.828,-32.227,0
1594927684.819,-22.461,-37.109,-45.898,-29.297,0
1594927684.832,-20.508,-38.574,-45.410,-29.785,0
1594927684.836,-26.855,-35.156,-46.875,-35.156,0
1594927684.840,-36.133,-34.180,-48.340,-35.156,0
1594927684.844,-34.668,-36.133,-45.898,-31.738,0
1594927684.848,-26.855,-31.738,-41.992,-27.344,0
1594927684.852,-22.949,-36.133,-41.504,-24.414,0
1594927684.856,-23.926,-40.527,-46.875,-23.926,0
1594927684.859,-28.809,-41.992,-47.852,-27.832,0
1594927684.863,-34.668,-46.875,-42.480,-28.320,0
1594927684.867,-23.438,-42.969,-41.504,-21.484,0
1594927684.871,-20.508,-36.133,-46.387,-20.020,0
1594927684.875,-33.203,-34.668,-45.898,-23.926,0
1594927684.870,-47.363,-35.645,-41.504,-19.531,0
1594927684.874,-57.617,-30.762,-37.109,-31.738,0
1594927684.878,-45.410,-21.484,-30.762,-38.574,0
1594927684.882,-59.570,-30.762,-37.598,-47.363,0
1594927684.886,-84.473,-37.598,-41.504,-69.336,0
1594927684.890,-89.844,-31.250,-36.133,-90.820,0
1594927684.894,-101.074,-23.926,-25.391,-102.051,0
1594927684.897,-119.629,-20.508,-20.020,-115.723,0
1594927684.901,-135.254,-26.367,-28.320,-145.020,0
1594927684.905,-148.926,-28.809,-24.902,-150.879,0
1594927684.909,-155.762,-31.250,-20.020,-156.250,0
1594927684.913,-149.414,-28.809,-20.020,-151.367,0
1594927684.927,-139.160,-27.832,-22.461,-139.160,0
1594927684.931,-122.559,-36.133,-27.344,-130.859,0
1594927684.935,-120.117,-33.691,-20.020,-119.141,0
1594927684.939,-121.582,-37.109,-16.113,-114.258,0
1594927684.943,-114.258,-41.504,-19.043,-109.375,0
1594927684.947,-119.141,-43.945,-22.461,-102.051,0
1594927684.951,-121.094,-47.363,-26.367,-92.285,0
1594927684.954,-104.004,-44.434,-30.273,-86.914,0
1594927684.958,-87.402,-43.945,-34.668,-76.172,0
1594927684.962,-81.055,-44.922,-37.109,-60.059,0
1594927684.966,-72.266,-43.945,-37.598,-50.293,0
1594927684.970,-51.758,-47.363,-28.809,-43.457,0
1594927684.964,-37.109,-50.781,-28.320,-27.344,0
1594927684.968,-30.762,-49.316,-34.180,-21.973,0
1594927684.972,-16.113,-43.945,-32.715,-16.113,0
1594927684.976,0.488,-41.016,-31.250,-4.395,0
1594927684.980,2.441,-42.480,-31.738,0.000,0
1594927684.984,-1.953,-42.969,-35.156,0.977,0
1594927684.988,-8.301,-42.969,-37.598,3.418,0
1594927684.991,-7.812,-41.992,-34.180,0.488,0
1594927684.995,1.953,-42.480,-34.668,-3.418,0
1594927684.999,7.812,-38.574,-39.062,1.465,0
1594927685.003,14.160,-36.133,-38.574,-1.953,0
1594927685.007,10.742,-33.203,-37.598,1.465,0
1594927685.020,-3.418,-37.598,-40.039,3.906,0
1594927685.024,-2.441,-40.527,-43.457,-1.953,0
1594927685.028,3.906,-30.762,-37.109,1.953,0
1594927685.032,4.395,-29.297,-34.180,6.348,0
1594927685.036,7.812,-32.227,-35.156,8.789,0
1594927685.040,6.348,-38.086,-40.039,2.930,0
1594927685.044,-0.488,-43.945,-47.852,-0.488,0
1594927685.047,-6.348,-40.527,-45.898,5.859,0
1594927685.051,-12.207,-37.109,-42.480,5.371,0
1594927685.055,-10.254,-29.785,-38.574,0.488,0
1594927685.059,-3.906,-29.785,-39.062,4.395,0
1594927685.063,-0.977,-33.203,-33.691,15.625,0
1594927685.057,-1.953,-26.855,-29.785,14.160,0
1594927685.061,0.977,-28.320,-34.180,6.836,0
1594927685.065,-0.977,-40.039,-35.156,1.465,0
1594927685.069,2.930,-36.133,-36.133,1.465,0
1594927685.073,3.906,-31.738,-38.574,0.000,0
1594927685.077,-2.441,-36.133,-40.039,-1.953,0
1594927685.081,-10.254,-37.109,-38.086,-5.859,0
1594927685.084,-10.742,-33.203,-38.574,-7.324,0
1594927685.088,-8.301,-29.297,-41.016,-2.441,0
1594927685.092,-13.184,-32.227,-37.598,-0.977,0
1594927685.096,-16.602,-34.180,-39.551,-5.859,0
1594927685.100,-25.391,-39.551,-40.039,-2.930,0
1594927685.114,-26.367,-40.039,-40.527,-8.789,0
1594927685.118,-28.320,-40.527,-44.922,-12.207,0
1594927685.122,-41.016,-40.527,-39.062,-10.742,0
1594927685.126,-39.062,-36.621,-29.785,-12.207,0
1594927685.130,-40.039,-35.645,-32.715,-17.090,0
1594927685.134,-32.227,-35.156,-52.246,-17.578,0
1594927685.138,-27.344,-36.621,-56.641,-11.719,0
1594927685.141,-26.855,-34.180,-37.109,-12.695,0
1594927685.145,-28.809,-32.715,-33.203,-11.719,0
1594927685.149,-36.133,-39.551,-38.574,-17.090,0
1594927685.153,-26.855,-40.527,-37.598,-18.066,0
1594927685.157,-23.926,-36.621,-36.133,-21.484,0
1594927685.152,-22.949,-34.668,-35.156,-31.250,0
1594927685.156,-20.508,-34.668,-35.156,-28.320,0
1594927685.160,-22.949,-40.039,-34.668,-25.391,0
1594927685.164,-25.391,-35.645,-37.598,-23.926,0
1594927685.168,-29.785,-27.832,-32.227,-24.902,0
1594927685.172,-26.367,-27.344,-30.273,-25.391,0
1594927685.176,-27.832,-27.344,-29.785,-22.949,0
1594927685.179,-30.273,-22.461,-31.250,-29.297,0
1594927685.183,-20.020,-33.203,-41.992,-28.320,0
1594927685.187,-17.578,-41.504,-40.527,-24.414,0
1594927685.191,-30.273,-37.598,-30.762,-18.555,0
1594927685.195,-35.645,-37.109,-32.227,-19.531,0
1594927685.207,-48.828,-38.086,-35.156,-23.438,0
1594927685.211,-54.688,-34.180,-36.133,-18.555,0
1594927685.215,-41.992,-30.273,-32.715,-18.066,0
1594927685.219,-39.551,-32.227,-34.180,-22.461,0
1594927685.223,-46.875,-31.250,-40.039,-28.809,0
1594927685.227,-39.551,-31.738,-42.969,-26.367,0
1594927685.231,-41.992,-39.062,-46.387,-19.531,0
1594927685.234,-41.016,-39.062,-47.852,-27.832,0
1594927685.238,-28.809,-37.109,-37.109,-33.203,0
1594927685.242,-27.344,-39.062,-41.992,-35.156,0
1594927685.246,-40.039,-38.086,-49.316,-28.320,0
1594927685.250,-53.223,-35.156,-41.992,-22.949,0
1594927685.245,-52.246,-39.062,-44.434,-32.715,0
1594927685.249,-46.387,-35.156,-48.340,-34.668,2
1594927685.253,-29.785,-26.855,-46.875,-41.504,0
1594927685.257,-18.066,-25.391,-47.363,-54.199,0
1594927685.261,-14.648,-20.508,-32.715,-46.875,0
1594927685.265,-12.207,-15.625,-20.996,-36.133,0
1594927685.269,-17.090,-25.391,-37.109,-39.062,0
1594927685.272,-30.762,-36.621,-37.598,-39.062,0
1594927685.276,-35.156,-36.621,-38.574,-28.809,0
1594927685.280,-30.762,-39.551,-41.016,-19.043,0
1594927685.284,-45.898,-39.062,-38.086,-20.996,0
1594927685.288,-55.664,-35.156,-32.715,-29.785,0
1594927685.301,-49.805,-31.738,-27.832,-33.691,0
1594927685.305,-40.039,-33.691,-33.203,-28.809,0
1594927685.309,-37.109,-33.203,-33.691,-26.855,0
1594927685.313,-45.410,-35.645,-33.691,-36.133,0
1594927685.317,-49.316,-34.180,-30.762,-31.250,0
1594927685.321,-49.316,-33.691,-30.762,-32.227,0
1594927685.325,-52.246,-36.133,-31.738,-27.832,0
1594927685.328,-49.805,-31.738,-25.391,-26.367,0
1594927685.332,-36.621,-29.785,-27.832,-34.668,0
1594927685.336,-35.156,-29.785,-29.785,-30.273,0
1594927685.340,-27.832,-28.809,-33.691,-29.785,0
1594927685.344,-24.414,-28.320,-34.180,-34.180,0
1594927685.339,-26.367,-25.879,-29.785,-34.180,0
1594927685.343,-30.762,-29.785,-29.297,-32.227,0
1594927685.347,-35.645,-26.855,-31.250,-27.832,0
1594927685.351,-31.250,-22.461,-36.133,-32.227,0
1594927685.355,-29.297,-28.320,-32.227,-37.109,0
1594927685.359,-26.855,-31.738,-32.715,-35.156,0
1594927685.363,-27.832,-30.762,-30.762,-35.645,0
1594927685.366,-32.715,-28.320,-34.180,-42.969,0
1594927685.370,-24.902,-27.344,-36.133,-26.367,0
1594927685.374,-22.949,-24.902,-25.879,-8.789,0
1594927685.378,-33.691,-27.344,-21.484,-23.438,0
1594927685.382,-40.039,-33.691,-23.926,-24.902,0
1594927685.395,-34.180,-37.109,-25.879,-17.090,0
1594927685.399,-24.902,-43.457,-27.832,-14.160,0
1594927685.403,-30.273,-44.922,-20.996,-18.066,0
1594927685.407,-46.875,-40.527,-21.484,-24.902,0
1594927685.411,-52.734,-40.527,-28.320,-25.391,0
1594927685.415,-40.039,-34.668,-26.367,-21.484,0
1594927685.419,-40.039,-28.809,-23.926,-15.137,0
1594927685.422,-41.504,-29.297,-21.484,-19.043,0
1594927685.426,-32.227,-25.879,-24.902,-22.949,0
1594927685.430,-24.902,-25.879,-27.832,-18.555,0
1594927685.434,-15.625,-25.879,-24.414,-16.602,0
1594927685.438,-14.648,-19.531,-18.555,-17.578,0
1594927685.432,-22.461,-20.996,-17.578,-24.414,0
1594927685.436,-24.902,-29.785,-23.926,-28.809,0
1594927685.440,-19.043,-32.227,-29.297,-29.785,0
1594927685.444,-20.996,-25.879,-30.762,-26.367,0
1594927685.448,-25.391,-28.809,-32.715,-27.832,0
1594927685.452,-25.391,-34.180,-35.156,-36.133,0
1594927685.456,-32.715,-31.250,-38.574,-39.551,0
1594927685.459,-35.156,-31.250,-40.527,-41.016,0
1594927685.463,-30.762,-33.203,-38.574,-36.621,0
1594927685.467,-29.297,-32.227,-33.203,-30.273,0
1594927685.471,-21.484,-32.715,-31.250,-39.062,0
1594927685.475,-30.273,-33.691,-32.227,-42.480,0
1594927685.489,-39.551,-30.762,-32.715,-39.062,0
1594927685.493,-33.691,-31.738,-41.016,-34.180,0
1594927685.497,-26.855,-31.250,-39.551,-28.320,0
1594927685.501,-26.367,-31.250,-32.715,-28.809,0
1594927685.505,-39.551,-31.738,-31.738,-28.809,0
1594927685.509,-48.340,-34.668,-26.855,-30.273,0
1594927685.513,-52.246,-28.809,-31.738,-30.273,0
1594927685.516,-34.668,-18.555,-32.227,-25.879,0
1594927685.520,-29.297,-19.531,-31.250,-29.297,0
1594927685.524,-45.410,-24.902,-38.574,-36.621,0
1594927685.528,-42.969,-25.879,-41.504,-29.785,0
1594927685.532,-48.340,-26.367,-39.062,-32.227,0
1594927685.526,-46.875,-28.320,-35.645,-38.086,0
1594927685.530,-41.992,-30.273,-38.574,-24.902,0
1594927685.534,-43.457,-27.344,-39.062,-21.973,0
1594927685.538,-41.992,-27.344,-29.785,-25.879,0
1594927685.542,-31.250,-26.855,-29.785,-23.438,0
1594927685.546,-20.020,-23.438,-32.715,-18.555,0
1594927685.550,-19.531,-23.926,-31.738,-18.555,0
1594927685.553,-21.484,-27.832,-36.133,-27.832,0
1594927685.557,-22.461,-33.691,-39.551,-20.996,0
1594927685.561,-41.992,-33.203,-38.086,-13.672,0
1594927685.565,-49.316,-29.785,-34.180,-20.996,0
1594927685.569,-47.852,-24.902,-28.809,-27.832,0
1594927685.582,-52.734,-19.531,-26.855,-36.133,0
1594927685.586,-53.711,-25.391,-31.738,-39.062,0
1594927685.590,-45.410,-22.949,-24.902,-37.598,0
1594927685.594,-35.156,-17.578,-26.367,-39.551,0
1594927685.598,-38.574,-25.391,-35.156,-37.109,0
1594927685.602,-38.574,-29.785,-41.016,-35.645,0
1594927685.606,-38.574,-24.902,-36.133,-29.785,0
1594927685.609,-36.621,-14.160,-31.250,-30.273,0
1594927685.613,-36.621,-20.996,-28.809,-42.480,0
1594927685.617,-31.738,-24.902,-26.367,-36.133,0
1594927685.621,-20.996,-22.461,-25.879,-32.227,0
1594927685.625,-32.227,-25.391,-34.668,-41.992,0
1594927685.620,-42.480,-26.367,-32.715,-28.809,0
1594927685.624,-39.062,-28.809,-22.461,-28.320,0
1594927685.628,-38.574,-31.738,-27.832,-37.598,0
1594927685.632,-40.527,-31.738,-34.668,-34.668,0
1594927685.636,-42.480,-29.785,-31.738,-41.992,0
1594927685.640,-44.434,-28.809,-33.691,-45.898,0
1594927685.644,-46.875,-25.391,-36.621,-39.062,0
1594927685.647,-48.340,-23.438,-41.504,-41.504,0
1594927685.651,-38.086,-25.391,-41.992,-36.621,0
1594927685.655,-29.297,-25.879,-32.227,-29.785,0
1594927685.659,-36.133,-19.531,-32.227,-36.621,0
1594927685.663,-39.062,-19.531,-38.574,-35.645,0
1594927685.677,-41.992,-24.414,-39.551,-26.855,0
1594927685.681,-43.457,-27.832,-46.387,-22.461,0
1594927685.685,-52.734,-26.855,-46.387,-28.809,0
1594927685.689,-55.664,-29.785,-37.109,-32.715,0
1594927685.693,-46.387,-33.691,-30.273,-26.855,0
1594927685.697,-45.898,-37.598,-29.297,-19.531,0
1594927685.701,-39.551,-37.109,-26.855,-16.113,0
1594927685.704,-43.457,-24.902,-19.043,-25.879,0
1594927685.708,-47.363,-25.391,-21.484,-34.180,0
1594927685.712,-41.992,-24.902,-23.926,-30.273,0
1594927685.716,-37.109,-25.879,-26.367,-30.762,0
1594927685.720,-29.297,-33.691,-32.715,-34.668,0
1594927685.714,-28.809,-29.785,-32.227,-31.250,0
1594927685.718,-36.133,-29.297,-30.273,-30.762,0
1594927685.722,-34.180,-28.809,-28.809,-40.527,0
1594927685.726,-23.438,-22.949,-27.832,-38.086,0
1594927685.730,-19.043,-23.926,-30.762,-34.668,0
1594927685.734,-19.043,-25.879,-28.809,-36.133,0
1594927685.738,-26.367,-27.832,-27.344,-37.109,0
1594927685.741,-27.344,-34.668,-32.715,-46.875,0
1594927685.745,-22.461,-32.715,-36.621,-46.387,0
1594927685.749,-25.879,-27.344,-32.715,-34.180,0
1594927685.753,-31.738,-33.691,-26.367,-35.156,0
1594927685.757,-30.762,-30.273,-25.879,-42.480,0
1594927685.770,-29.785,-30.273,-24.902,-40.039,0
1594927685.774,-40.039,-32.227,-30.273,-39.551,0
1594927685.778,-44.922,-25.879,-30.273,-39.551,0
1594927685.782,-28.320,-23.438,-22.461,-35.645,0
1594927685.786,-29.785,-27.832,-23.438,-33.691,0
1594927685.790,-44.922,-33.203,-25.391,-34.180,0
1594927685.794,-52.734,-36.133,-25.879,-26.855,0
1594927685.797,-41.992,-35.645,-20.996,-20.508,0
1594927685.801,-31.250,-32.715,-21.484,-25.879,0
1594927685.805,-39.551,-37.109,-26.367,-32.227,0
1594927685.809,-31.250,-42.480,-26.367,-24.902,0
1594927685.813,-26.855,-36.133,-24.414,-12.207,0
1594927685.807,-37.109,-33.203,-24.902,-23.438,0
1594927685.811,-33.691,-35.156,-25.391,-26.855,0
1594927685.815,-27.344,-33.691,-28.809,-23.438,0
1594927685.819,-26.855,-31.738,-30.273,-28.320,0
1594927685.823,-29.785,-26.855,-27.344,-26.855,0
1594927685.827,-22.949,-28.809,-27.344,-27.832,0
1594927685.831,-11.230,-28.809,-31.738,-22.949,0
1594927685.834,-18.066,-27.344,-38.086,-16.113,0
1594927685.838,-16.113,-30.273,-36.133,-15.137,0
1594927685.842,-0.488,-24.414,-29.785,-14.648,0
1594927685.846,1.953,-19.043,-24.902,-21.484,0
1594927685.850,-9.277,-23.926,-26.855,-21.484,0
1594927685.864,-20.996,-25.391,-26.367,-20.020,0
1594927685.868,-29.297,-24.902,-24.414,-18.555,0
1594927685.872,-33.691,-20.996,-18.555,-19.531,0
1594927685.876,-46.875,-22.949,-18.555,-26.855,0
1594927685.880,-53.711,-25.391,-23.926,-29.785,0
1594927685.884,-46.875,-30.273,-29.785,-23.926,0
1594927685.888,-46.875,-36.133,-36.133,-19.531,0
1594927685.891,-44.922,-32.227,-37.109,-28.809,0
1594927685.895,-41.992,-28.320,-31.250,-33.203,0
1594927685.899,-45.898,-30.762,-30.273,-29.297,0
1594927685.903,-36.621,-29.297,-30.762,-22.949,0
1594927685.907,-40.527,-25.879,-28.809,-22.949,0
1594927685.902,-41.504,-28.809,-26.855,-31.250,0
1594927685.906,-39.062,-35.156,-27.344,-40.039,0
1594927685.910,-39.062,-34.180,-29.297,-33.203,0
1594927685.914,-34.180,-32.227,-31.738,-28.320,0
1594927685.918,-35.645,-28.320,-30.762,-35.645,0
1594927685.922,-41.016,-31.250,-32.227,-40.527,0
1594927685.926,-37.109,-30.273,-28.809,-38.086,0
1594927685.929,-30.762,-26.855,-23.926,-37.109,0
1594927685.933,-36.133,-32.227,-24.902,-29.297,0
1594927685.937,-39.551,-31.738,-22.949,-28.320,0
1594927685.941,-45.898,-30.273,-21.973,-46.387,0
1594927685.945,-44.922,-35.156,-24.414,-48.340,0
1594927685.957,-43.945,-39.551,-29.785,-51.270,0
1594927685.961,-42.969,-40.039,-31.738,-55.664,0
1594927685.965,-36.133,-36.133,-27.832,-49.805,0
1594927685.969,-33.203,-36.133,-27.832,-42.969,0
1594927685.973,-31.250,-37.109,-29.297,-38.086,0
1594927685.977,-35.645,-39.551,-31.250,-37.598,0
1594927685.981,-27.344,-45.898,-27.344,-34.668,0
1594927685.984,-22.461,-39.062,-17.090,-29.785,0
1594927685.988,-21.484,-32.227,-18.066,-34.668,0
1594927685.992,-10.742,-34.180,-24.414,-42.480,0
1594927685.996,-15.625,-35.645,-29.297,-45.898,0
1594927686.000,-23.926,-36.133,-27.344,-44.922,0
1594927685.995,-17.090,-37.109,-24.414,-36.133,0
1594927685.999,-16.113,-37.109,-28.809,-25.879,0
1594927686.003,-34.668,-39.551,-32.227,-27.832,0
1594927686.007,-35.645,-43.945,-31.738,-20.996,0
1594927686.011,-43.457,-47.363,-33.691,-18.066,0
1594927686.015,-51.758,-46.387,-42.969,-22.949,0
1594927686.019,-47.852,-41.992,-38.574,-20.508,0
1594927686.022,-38.574,-34.668,-32.715,-24.414,0
1594927686.026,-36.133,-37.109,-44.434,-34.180,0
1594927686.030,-40.527,-41.992,-46.875,-27.832,0
1594927686.034,-39.551,-37.109,-35.645,-21.484,0
1594927686.038,-41.504,-37.109,-36.621,-24.902,0
1594927686.051,-51.758,-36.621,-37.109,-30.273,0
1594927686.055,-62.988,-33.203,-34.668,-36.621,0
1594927686.059,-57.129,-33.203,-25.879,-36.621,0
1594927686.063,-52.734,-34.668,-23.926,-38.086,0
1594927686.067,-49.805,-40.039,-28.809,-37.109,0
1594927686.071,-45.410,-38.086,-31.250,-31.250,0
1594927686.075,-42.969,-30.762,-29.785,-25.391,0
1594927686.078,-41.016,-31.250,-23.438,-22.461,0
1594927686.082,-35.645,-33.691,-20.508,-24.414,0
1594927686.086,-31.250,-35.645,-23.438,-30.762,0
1594927686.090,-31.250,-41.016,-34.180,-25.391,0
1594927686.094,-31.250,-40.527,-37.109,-24.902,0
1594927686.089,-35.645,-32.227,-29.785,-27.832,0
