timestamps,TP9,AF7,AF8,TP10,Marker0
1594927347.874,-28.320,-29.785,-20.020,-32.715,0
1594927347.878,-33.203,-30.762,-21.973,-30.273,0
1594927347.882,-26.855,-33.203,-19.043,-22.949,0
1594927347.886,-24.414,-40.039,-17.090,-24.414,0
1594927347.890,-34.668,-39.062,-20.996,-26.855,0
1594927347.894,-41.504,-36.621,-26.855,-23.926,0
1594927347.898,-41.992,-31.738,-26.855,-25.879,0
1594927347.901,-34.180,-27.344,-24.414,-27.832,0
1594927347.905,-25.879,-26.855,-28.809,-30.762,0
1594927347.909,-18.066,-27.344,-32.227,-30.762,0
1594927347.913,-17.578,-27.344,-29.785,-35.645,0
1594927347.917,-28.809,-26.367,-34.180,-42.480,0
1594927347.931,-31.738,-30.762,-32.227,-37.598,0
1594927347.935,-23.438,-36.621,-29.297,-35.156,0
1594927347.939,-21.484,-33.691,-27.832,-39.062,0
1594927347.943,-27.832,-26.367,-28.809,-32.715,0
1594927347.947,-26.855,-17.578,-27.344,-35.156,0
1594927347.951,-21.484,-20.996,-33.203,-37.598,0
1594927347.955,-25.879,-29.297,-39.551,-29.297,0
1594927347.958,-28.320,-33.691,-28.809,-25.879,0
1594927347.962,-23.926,-39.551,-23.926,-28.320,0
1594927347.966,-26.367,-35.156,-21.484,-26.367,0
1594927347.970,-32.715,-32.227,-21.484,-29.785,0
1594927347.974,-31.738,-31.250,-23.438,-32.227,0
1594927347.969,-36.621,-35.156,-22.461,-34.668,0
1594927347.973,-31.738,-36.621,-25.391,-31.250,0
1594927347.977,-35.156,-39.551,-29.785,-32.227,0
1594927347.981,-41.504,-45.898,-28.809,-38.574,0
1594927347.985,-33.691,-40.039,-22.949,-36.621,0
1594927347.989,-28.320,-34.668,-21.484,-37.109,0
1594927347.993,-25.879,-37.598,-20.996,-29.297,0
1594927347.996,-31.250,-37.598,-21.484,-25.391,0
1594927348.000,-37.109,-32.715,-26.855,-28.809,0
1594927348.004,-30.273,-34.668,-24.414,-29.785,0
1594927348.008,-19.043,-33.203,-21.973,-32.227,0
1594927348.012,-18.066,-31.250,-24.414,-31.738,0
1594927348.026,-23.438,-38.574,-24.902,-37.598,0
1594927348.030,-14.648,-38.574,-31.738,-39.062,0
1594927348.034,-18.066,-34.180,-30.762,-25.391,0
1594927348.038,-30.762,-36.621,-28.320,-29.785,0
1594927348.042,-27.344,-35.156,-28.320,-49.805,0
1594927348.046,-33.691,-36.621,-30.762,-50.293,0
1594927348.050,-35.156,-46.875,-37.109,-47.363,0
1594927348.053,-39.551,-48.340,-36.133,-54.688,0
1594927348.057,-42.969,-45.410,-20.508,-57.129,0
1594927348.061,-36.621,-40.039,-16.602,-50.781,0
1594927348.065,-36.621,-43.945,-25.879,-45.898,0
1594927348.069,-36.133,-47.363,-23.926,-42.969,0
1594927348.062,-37.598,-43.945,-23.926,-45.410,0
1594927348.066,-39.551,-41.992,-27.832,-47.363,0
1594927348.070,-28.809,-37.109,-29.297,-39.062,0
1594927348.074,-25.879,-42.480,-28.320,-33.691,0
1594927348.078,-30.273,-43.945,-31.738,-29.297,0
1594927348.082,-31.738,-33.691,-29.785,-24.414,0
1594927348.086,-30.273,-29.785,-22.949,-16.602,0
1594927348.089,-36.133,-24.902,-21.973,-16.113,0
1594927348.093,-43.457,-25.879,-34.180,-21.973,0
1594927348.097,-40.527,-32.227,-40.527,-22.949,0
1594927348.101,-36.621,-27.832,-31.250,-26.367,0
1594927348.105,-30.762,-23.926,-29.297,-23.438,0
1594927348.118,-35.645,-25.879,-32.227,-23.926,0
1594927348.122,-34.668,-29.297,-31.738,-32.227,0
1594927348.126,-39.551,-26.367,-31.250,-47.852,0
1594927348.130,-41.992,-25.879,-34.180,-49.805,0
1594927348.134,-28.809,-27.344,-32.715,-40.527,0
1594927348.138,-32.715,-28.809,-33.691,-36.621,0
1594927348.142,-36.133,-33.691,-34.180,-35.645,0
1594927348.145,-38.086,-35.645,-30.273,-45.410,0
1594927348.149,-34.668,-23.926,-27.832,-46.875,0
1594927348.153,-33.691,-14.160,-25.391,-44.922,0
1594927348.157,-44.922,-15.137,-25.879,-46.875,0
1594927348.161,-40.039,-16.602,-30.762,-47.852,0
1594927348.156,-26.367,-13.184,-28.320,-43.457,0
1594927348.160,-25.391,-14.160,-28.320,-37.109,0
1594927348.164,-27.832,-19.043,-31.250,-34.668,0
1594927348.168,-33.691,-23.438,-28.809,-31.250,0
1594927348.172,-27.344,-23.926,-20.996,-20.508,0
1594927348.176,-23.438,-13.672,-18.555,-17.090,0
1594927348.180,-34.180,-19.531,-17.090,-25.391,0
1594927348.183,-33.203,-26.855,-15.625,-20.508,0
1594927348.187,-30.762,-20.020,-25.879,-16.602,0
1594927348.191,-40.039,-20.020,-45.410,-22.461,0
1594927348.195,-40.039,-32.715,-37.109,-24.902,0
1594927348.199,-28.809,-29.297,-20.508,-22.461,0
1594927348.212,-32.227,-31.250,-22.461,-25.879,0
1594927348.216,-32.715,-37.598,-27.832,-33.691,0
1594927348.220,-36.133,-38.574,-28.809,-41.992,0
1594927348.224,-32.715,-45.898,-23.438,-43.457,0
1594927348.228,-22.949,-37.109,-26.367,-38.086,0
1594927348.232,-27.344,-33.691,-32.715,-34.180,0
1594927348.236,-33.203,-37.109,-26.367,-30.762,0
1594927348.239,-33.203,-30.273,-19.043,-32.227,0
1594927348.243,-25.391,-27.832,-20.996,-34.180,0
1594927348.247,-28.320,-31.250,-27.344,-34.668,0
1594927348.251,-38.086,-30.273,-30.762,-35.645,0
1594927348.255,-40.527,-34.180,-27.344,-35.156,0
1594927348.251,-40.527,-40.527,-28.320,-32.227,0
1594927348.255,-36.621,-40.527,-33.691,-33.691,0
1594927348.259,-35.156,-41.992,-34.180,-40.039,0
1594927348.263,-38.086,-42.969,-35.156,-41.504,0
1594927348.267,-36.621,-43.945,-30.273,-40.527,0
1594927348.271,-41.016,-41.504,-28.320,-44.434,0
1594927348.275,-38.086,-36.621,-26.855,-45.898,0
1594927348.278,-33.203,-32.715,-27.344,-45.898,0
1594927348.282,-30.273,-37.109,-34.668,-42.969,0
1594927348.286,-31.738,-39.062,-34.180,-43.945,0
1594927348.290,-35.645,-37.598,-28.809,-44.922,0
1594927348.294,-35.645,-40.039,-30.273,-41.992,0
1594927348.306,-41.504,-37.109,-35.156,-49.316,0
1594927348.310,-34.668,-36.133,-37.598,-45.898,0
1594927348.314,-34.180,-26.855,-39.062,-40.527,0
1594927348.318,-32.227,-22.949,-27.344,-42.480,0
1594927348.322,-34.180,-36.133,-22.461,-38.574,0
1594927348.326,-41.016,-24.414,-30.273,-37.109,0
1594927348.330,-33.691,-18.555,-27.832,-30.762,0
1594927348.333,-32.715,-25.879,-21.973,-34.668,0
1594927348.337,-35.156,-29.297,-25.879,-49.805,0
1594927348.341,-31.250,-24.902,-26.855,-45.898,0
1594927348.345,-35.645,-23.926,-32.715,-52.734,0
1594927348.349,-38.086,-29.785,-35.156,-48.828,0
1594927348.343,-36.133,-34.668,-30.762,-38.086,0
1594927348.347,-37.109,-36.133,-29.785,-59.082,0
1594927348.351,-38.574,-41.016,-29.785,-69.824,0
1594927348.355,-36.133,-46.875,-26.855,-52.734,0
1594927348.359,-29.297,-51.758,-24.902,-45.410,0
1594927348.363,-29.297,-47.852,-28.320,-43.457,0
1594927348.367,-33.203,-42.480,-25.879,-41.504,0
1594927348.370,-31.250,-41.504,-24.414,-37.109,0
1594927348.374,-32.715,-37.109,-31.738,-45.410,0
1594927348.378,-40.039,-34.180,-33.691,-54.688,0
1594927348.382,-44.434,-37.109,-32.715,-47.363,0
1594927348.386,-42.480,-42.480,-37.109,-44.922,0
1594927348.399,-43.945,-38.086,-34.668,-42.969,0
1594927348.403,-42.969,-36.621,-34.668,-31.250,0
1594927348.407,-40.527,-40.039,-33.203,-27.832,0
1594927348.411,-32.227,-32.227,-27.832,-27.344,0
1594927348.415,-26.855,-33.691,-26.367,-31.738,0
1594927348.419,-37.109,-41.504,-32.227,-43.945,0
1594927348.423,-40.527,-41.992,-35.156,-36.621,0
1594927348.426,-35.156,-35.645,-29.297,-37.109,0
1594927348.430,-34.668,-31.738,-29.297,-41.992,0
1594927348.434,-41.992,-30.762,-31.250,-38.574,0
1594927348.438,-38.086,-26.855,-40.039,-35.156,0
1594927348.442,-29.785,-22.461,-42.480,-35.645,0
1594927348.437,-26.367,-30.762,-31.250,-34.668,0
1594927348.441,-31.738,-45.898,-33.203,-33.203,0
1594927348.445,-27.344,-45.410,-35.156,-29.785,0
1594927348.449,-27.344,-45.410,-32.227,-24.414,0
1594927348.453,-37.109,-44.922,-30.762,-33.203,0
1594927348.457,-37.598,-41.016,-28.320,-40.039,0
1594927348.461,-33.691,-42.480,-27.344,-40.039,0
1594927348.464,-38.574,-38.086,-25.879,-37.109,0
1594927348.468,-41.992,-41.016,-20.996,-35.156,0
1594927348.472,-27.832,-35.156,-15.137,-29.785,0
1594927348.476,-23.926,-28.809,-14.648,-33.203,0
1594927348.480,-36.133,-37.109,-23.438,-44.434,0
1594927348.493,-39.062,-29.297,-26.855,-42.480,0
1594927348.497,-30.273,-30.273,-26.855,-36.133,0
1594927348.501,-21.484,-36.133,-24.414,-29.785,0
1594927348.505,-29.297,-32.227,-25.391,-38.086,0
1594927348.509,-37.109,-32.227,-30.273,-47.363,0
1594927348.513,-31.738,-29.785,-27.344,-34.668,0
1594927348.517,-34.668,-32.715,-26.367,-24.414,0
1594927348.520,-45.898,-32.715,-24.902,-36.133,2
1594927348.524,-44.434,-33.691,-26.855,-38.574,0
1594927348.528,-44.922,-32.715,-28.320,-40.527,0
1594927348.532,-40.039,-27.344,-27.344,-44.922,0
1594927348.536,-35.156,-28.320,-27.832,-31.738,0
1594927348.531,-31.738,-33.203,-26.855,-28.809,0
1594927348.535,-30.273,-35.645,-26.367,-32.715,0
1594927348.539,-33.691,-33.691,-36.133,-34.668,0
1594927348.543,-41.016,-30.762,-43.945,-37.109,0
1594927348.547,-44.922,-28.809,-36.621,-35.156,0
1594927348.551,-40.039,-20.020,-30.273,-36.133,0
1594927348.555,-37.109,-21.973,-25.879,-39.551,0
1594927348.558,-33.203,-30.273,-24.902,-35.645,0
1594927348.562,-35.156,-32.227,-26.855,-26.367,0
1594927348.566,-40.039,-37.109,-26.367,-24.902,0
1594927348.570,-41.992,-38.574,-29.297,-35.156,0
1594927348.574,-40.039,-35.645,-29.785,-24.414,0
1594927348.587,-40.527,-31.250,-28.809,-18.555,0
1594927348.591,-44.922,-32.715,-32.227,-23.926,0
1594927348.595,-39.551,-32.227,-24.902,-16.113,0
1594927348.599,-40.527,-24.414,-17.090,-17.090,0
1594927348.603,-43.457,-34.180,-20.508,-22.461,0
1594927348.607,-36.621,-36.621,-32.227,-18.066,0
1594927348.611,-38.574,-30.762,-35.156,-16.602,0
1594927348.614,-37.109,-33.691,-25.879,-29.297,0
1594927348.618,-35.645,-34.668,-27.344,-29.297,0
1594927348.622,-28.809,-36.133,-30.273,-24.414,0
1594927348.626,-26.367,-36.621,-29.297,-36.133,0
1594927348.630,-24.902,-27.344,-30.762,-30.273,0
1594927348.624,-22.461,-29.785,-32.715,-21.973,0
1594927348.628,-24.414,-33.691,-29.297,-14.160,0
1594927348.632,-23.438,-26.367,-25.879,-23.926,0
1594927348.636,-29.785,-28.320,-29.297,-27.832,0
1594927348.640,-27.832,-31.250,-31.738,-12.207,0
1594927348.644,-20.996,-29.785,-35.156,-20.020,0
1594927348.648,-24.902,-29.297,-33.203,-29.785,0
1594927348.651,-22.949,-35.645,-27.832,-28.320,0
1594927348.655,-20.020,-38.086,-34.180,-25.391,0
1594927348.659,-33.203,-32.715,-35.156,-22.949,0
1594927348.663,-41.016,-38.086,-29.785,-34.668,0
1594927348.667,-41.016,-50.781,-31.250,-43.457,0
1594927348.681,-44.922,-46.875,-28.320,-42.969,0
1594927348.685,-46.875,-41.992,-33.203,-50.293,0
1594927348.689,-49.316,-45.898,-38.086,-58.594,0
1594927348.693,-48.340,-48.340,-32.227,-62.988,0
1594927348.697,-46.875,-50.781,-32.227,-57.617,0
1594927348.701,-50.781,-52.734,-34.668,-50.781,0
1594927348.705,-43.945,-41.992,-38.086,-56.152,0
1594927348.708,-37.598,-26.855,-36.621,-61.523,0
1594927348.712,-39.551,-20.508,-38.574,-49.316,0
1594927348.716,-30.762,-17.090,-39.551,-46.387,0
1594927348.720,-23.438,-17.090,-37.109,-48.340,0
1594927348.724,-22.949,-14.160,-38.574,-48.828,0
1594927348.720,-24.902,-13.672,-38.574,-44.434,0
1594927348.724,-22.461,-13.672,-35.645,-37.598,0
1594927348.728,-22.461,-18.555,-37.598,-39.551,0
1594927348.732,-24.902,-25.879,-41.504,-37.598,0
1594927348.736,-20.020,-24.902,-31.250,-30.273,0
1594927348.740,-22.461,-17.578,-27.344,-31.738,0
1594927348.744,-26.367,-15.625,-28.320,-39.551,0
1594927348.747,-26.367,-21.484,-29.297,-48.340,0
1594927348.751,-20.996,-25.391,-34.180,-45.898,0
1594927348.755,-17.090,-24.902,-29.297,-38.574,0
1594927348.759,-22.461,-25.879,-24.902,-41.504,0
1594927348.763,-24.414,-23.926,-28.320,-41.504,0
1594927348.774,-28.809,-24.414,-29.785,-41.992,0
1594927348.778,-18.555,-26.855,-26.855,-36.133,0
1594927348.782,-10.254,-25.879,-23.438,-32.715,0
1594927348.786,-21.973,-26.855,-20.508,-39.062,0
1594927348.790,-21.973,-24.414,-22.949,-34.180,0
1594927348.794,-23.926,-22.461,-31.250,-30.762,0
1594927348.798,-25.391,-30.273,-35.645,-32.227,0
1594927348.801,-28.320,-26.367,-30.273,-38.574,0
1594927348.805,-30.273,-17.578,-35.156,-47.363,0
1594927348.809,-28.320,-20.996,-27.832,-46.387,0
1594927348.813,-27.344,-27.832,-20.996,-43.457,0
1594927348.817,-16.113,-33.203,-25.879,-43.457,0
1594927348.812,-16.602,-26.855,-28.809,-37.598,0
1594927348.816,-24.414,-27.832,-27.344,-42.969,0
1594927348.820,-21.973,-40.527,-27.832,-52.246,0
1594927348.824,-22.949,-33.203,-37.109,-47.852,0
1594927348.828,-22.949,-27.832,-36.133,-41.016,0
1594927348.832,-23.438,-31.738,-35.645,-42.969,0
1594927348.836,-21.484,-26.855,-34.180,-36.621,0
1594927348.839,-22.461,-22.461,-32.227,-43.945,0
1594927348.843,-26.367,-31.738,-35.645,-49.316,0
1594927348.847,-28.320,-43.945,-33.203,-40.527,0
1594927348.851,-33.203,-36.133,-34.668,-41.504,0
1594927348.855,-40.039,-32.715,-39.551,-46.387,0
1594927348.868,-40.039,-32.715,-35.645,-47.852,0
1594927348.872,-41.992,-31.738,-39.551,-41.016,0
1594927348.876,-41.504,-28.809,-37.109,-42.480,0
1594927348.880,-41.504,-28.809,-44.922,-52.734,0
1594927348.884,-42.969,-33.691,-58.594,-50.781,0
1594927348.888,-34.668,-33.691,-53.711,-41.016,0
1594927348.892,-36.621,-34.180,-46.875,-44.922,0
1594927348.895,-40.527,-33.203,-38.086,-50.781,0
1594927348.899,-37.109,-32.715,-34.180,-52.246,0
1594927348.903,-42.969,-32.715,-30.762,-54.199,0
1594927348.907,-43.945,-36.621,-32.227,-44.434,0
1594927348.911,-43.457,-41.992,-39.062,-45.410,0
1594927348.906,-39.062,-38.086,-37.109,-44.922,0
1594927348.910,-36.133,-35.645,-33.203,-47.363,0
1594927348.914,-33.691,-32.715,-37.598,-49.316,0
1594927348.918,-25.879,-30.273,-46.387,-43.945,0
1594927348.922,-20.996,-30.273,-38.574,-41.016,0
1594927348.926,-20.020,-31.250,-39.551,-41.992,0
1594927348.930,-19.531,-28.809,-41.016,-39.551,0
1594927348.933,-24.414,-27.344,-28.320,-40.039,0
1594927348.937,-26.367,-32.227,-30.762,-40.039,0
1594927348.941,-18.066,-28.809,-32.715,-32.227,0
1594927348.945,-18.066,-22.461,-26.855,-40.039,0
1594927348.949,-21.484,-32.715,-27.832,-53.711,0
1594927348.962,-16.602,-32.715,-36.133,-61.035,0
1594927348.966,-17.090,-29.785,-33.203,-55.664,0
1594927348.970,-24.902,-31.250,-30.762,-53.223,0
1594927348.974,-24.414,-34.668,-31.250,-60.059,0
1594927348.978,-18.066,-24.902,-22.949,-49.805,0
1594927348.982,-27.344,-23.926,-23.438,-36.133,0
1594927348.986,-42.969,-34.180,-24.902,-33.691,0
1594927348.989,-45.410,-35.645,-21.973,-30.762,0
1594927348.993,-47.852,-42.480,-28.809,-29.297,0
1594927348.997,-43.945,-42.480,-28.809,-28.320,0
1594927349.001,-44.434,-40.039,-25.391,-28.320,0
1594927349.005,-45.410,-37.598,-26.367,-28.320,0
1594927349.001,-41.504,-29.297,-27.832,-29.785,0
1594927349.005,-43.457,-31.250,-28.320,-34.668,0
1594927349.009,-41.016,-40.039,-27.832,-34.668,0
1594927349.013,-41.016,-37.109,-30.273,-33.691,0
1594927349.017,-45.898,-34.668,-35.156,-35.156,0
1594927349.021,-42.480,-26.367,-37.598,-35.645,0
1594927349.025,-37.598,-24.414,-31.738,-31.250,0
1594927349.028,-32.227,-23.926,-28.320,-33.203,0
1594927349.032,-27.832,-22.949,-33.203,-36.621,0
1594927349.036,-25.879,-27.832,-34.668,-34.668,0
1594927349.040,-30.273,-26.367,-29.785,-40.527,0
1594927349.044,-25.879,-21.973,-29.785,-37.598,0
1594927349.056,-19.043,-25.879,-34.668,-32.227,0
1594927349.060,-22.949,-28.809,-35.645,-40.527,0
1594927349.064,-29.785,-25.391,-36.133,-50.293,0
1594927349.068,-30.273,-26.367,-32.227,-52.246,0
1594927349.072,-27.344,-25.879,-33.691,-42.969,0
1594927349.076,-30.762,-25.391,-32.227,-48.340,0
1594927349.080,-26.367,-27.832,-28.809,-37.598,0
1594927349.083,-20.996,-23.926,-32.715,-32.715,0
1594927349.087,-27.832,-22.949,-31.738,-44.922,0
1594927349.091,-31.738,-27.832,-30.273,-43.945,0
1594927349.095,-31.250,-26.855,-30.762,-40.527,0
1594927349.099,-28.809,-24.902,-36.621,-39.062,0
1594927349.093,-33.691,-33.203,-36.133,-31.738,0
1594927349.097,-43.457,-38.086,-32.715,-30.762,0
1594927349.101,-37.109,-36.621,-33.691,-28.809,0
1594927349.105,-27.344,-36.133,-29.785,-20.020,0
1594927349.109,-21.484,-34.668,-25.391,-17.578,0
1594927349.113,-17.578,-34.180,-29.785,-24.902,0
1594927349.117,-21.973,-32.715,-29.785,-21.484,0
1594927349.120,-20.996,-33.691,-24.414,-20.020,0
1594927349.124,-18.066,-37.109,-28.809,-27.832,0
1594927349.128,-25.391,-39.551,-25.879,-28.809,0
1594927349.132,-37.109,-40.039,-22.461,-32.715,0
1594927349.136,-35.645,-38.574,-25.879,-46.387,0
1594927349.149,-21.484,-40.039,-22.461,-39.062,0
1594927349.153,-19.043,-36.621,-24.414,-26.855,0
1594927349.157,-29.297,-30.762,-27.344,-31.738,0
1594927349.161,-35.645,-32.715,-20.508,-23.438,0
1594927349.165,-33.203,-26.855,-16.602,-18.066,0
1594927349.169,-25.879,-25.391,-21.973,-19.531,0
1594927349.173,-16.113,-29.785,-22.461,-14.648,0
1594927349.176,-21.973,-30.273,-20.020,-23.926,0
1594927349.180,-20.996,-30.273,-16.602,-30.273,0
1594927349.184,-17.090,-33.691,-17.090,-32.227,0
1594927349.188,-26.855,-49.316,-25.879,-42.969,0
1594927349.192,-32.227,-59.082,-20.996,-40.527,0
1594927349.187,-36.621,-53.223,-20.020,-36.621,0
1594927349.191,-41.992,-44.434,-25.879,-39.551,0
1594927349.195,-39.062,-38.574,-23.438,-46.387,0
1594927349.199,-32.715,-34.668,-23.438,-50.781,0
1594927349.203,-34.668,-37.598,-24.414,-40.527,0
1594927349.207,-37.109,-43.457,-25.391,-35.645,0
1594927349.211,-39.062,-49.805,-24.902,-36.133,0
1594927349.214,-43.945,-49.316,-24.414,-44.922,0
1594927349.218,-39.062,-45.898,-29.297,-51.270,0
1594927349.222,-35.645,-45.898,-27.832,-41.016,0
1594927349.226,-30.762,-43.457,-26.855,-41.016,0
1594927349.230,-27.832,-38.574,-29.297,-38.086,0
1594927349.244,-24.902,-37.109,-29.785,-34.668,0
1594927349.248,-17.090,-31.250,-31.250,-35.156,0
1594927349.252,-19.043,-33.691,-31.738,-32.227,0
1594927349.256,-27.344,-41.504,-29.785,-37.598,0
1594927349.260,-27.832,-42.969,-30.273,-30.762,0
1594927349.264,-30.273,-46.875,-32.227,-28.320,0
1594927349.268,-34.668,-45.898,-32.227,-35.156,0
1594927349.271,-40.039,-38.086,-29.297,-34.668,0
1594927349.275,-41.016,-39.551,-34.668,-36.133,0
1594927349.279,-30.762,-44.922,-37.109,-40.039,0
1594927349.283,-29.297,-40.039,-30.273,-35.156,0
1594927349.287,-34.668,-30.273,-25.879,-28.320,0
1594927349.281,-48.828,-28.809,-29.785,-33.691,0
1594927349.285,-51.270,-33.203,-28.809,-32.227,0
1594927349.289,-44.434,-31.250,-23.926,-26.855,0
1594927349.293,-44.434,-36.133,-22.949,-36.133,0
1594927349.297,-34.668,-30.273,-24.414,-38.086,0
1594927349.301,-27.832,-23.926,-27.832,-35.645,0
1594927349.305,-27.344,-21.484,-23.438,-24.414,0
1594927349.308,-28.809,-19.531,-21.484,-17.090,0
1594927349.312,-32.715,-17.090,-25.391,-25.879,0
1594927349.316,-31.250,-22.949,-28.320,-23.926,0
1594927349.320,-27.832,-29.297,-24.414,-26.855,0
1594927349.324,-27.344,-24.902,-21.973,-35.156,0
1594927349.337,-22.949,-21.484,-27.344,-41.504,0
1594927349.341,-28.320,-27.344,-31.250,-46.387,0
1594927349.345,-37.109,-24.902,-26.855,-48.340,0
1594927349.349,-32.227,-17.090,-25.391,-49.316,0
1594927349.353,-28.320,-20.508,-30.273,-54.199,0
1594927349.357,-27.832,-29.785,-32.715,-68.848,0
1594927349.361,-26.855,-29.785,-30.273,-59.570,0
1594927349.364,-22.949,-23.438,-27.832,-46.875,0
1594927349.368,-19.531,-27.344,-33.203,-46.875,1
1594927349.372,-24.414,-33.203,-35.156,-44.922,0
1594927349.376,-33.203,-33.691,-30.273,-44.922,0
1594927349.380,-24.414,-31.738,-28.320,-41.016,0
1594927349.377,-21.484,-29.297,-29.297,-45.410,0
1594927349.381,-22.949,-32.227,-29.785,-52.734,0
1594927349.385,-31.738,-33.203,-31.738,-59.082,0
1594927349.389,-40.039,-37.109,-36.133,-58.594,0
1594927349.393,-40.527,-37.598,-31.250,-57.129,0
1594927349.397,-42.480,-38.574,-31.738,-54.199,0
1594927349.401,-33.203,-36.133,-33.691,-57.617,0
1594927349.404,-29.297,-28.320,-27.344,-52.246,0
1594927349.408,-24.902,-30.273,-30.762,-37.598,0
1594927349.412,-13.184,-34.668,-31.738,-33.203,0
1594927349.416,-24.414,-33.203,-28.809,-38.086,0
1594927349.420,-29.297,-32.715,-28.320,-32.227,0
1594927349.431,-22.461,-32.227,-27.344,-20.996,0
1594927349.435,-21.973,-22.949,-27.344,-32.227,0
1594927349.439,-25.391,-16.113,-22.949,-30.762,0
1594927349.443,-15.137,-15.137,-21.484,-28.809,0
1594927349.447,-15.625,-26.855,-18.555,-32.227,0
1594927349.451,-26.855,-17.578,-20.508,-32.227,0
1594927349.455,-24.902,-13.672,-28.809,-32.715,0
1594927349.458,-21.973,-25.391,-28.320,-32.227,0
1594927349.462,-26.367,-25.391,-25.391,-44.434,0
1594927349.466,-30.762,-32.715,-29.297,-41.504,0
1594927349.470,-34.668,-38.574,-29.785,-31.738,0
1594927349.474,-29.785,-34.180,-28.809,-27.344,0
1594927349.469,-29.785,-29.785,-32.227,-22.949,0
1594927349.473,-31.250,-33.203,-34.668,-29.297,0
1594927349.477,-31.738,-37.598,-33.691,-38.086,0
1594927349.481,-33.691,-39.551,-33.691,-40.527,0
1594927349.485,-27.344,-39.062,-34.180,-37.598,0
1594927349.489,-24.902,-40.527,-32.227,-32.715,0
1594927349.493,-24.902,-39.062,-30.762,-31.738,0
1594927349.496,-19.043,-37.109,-35.156,-34.180,0
1594927349.500,-22.461,-41.504,-33.203,-31.250,0
1594927349.504,-20.996,-39.062,-23.438,-26.855,0
1594927349.508,-14.648,-38.086,-23.438,-22.461,0
1594927349.512,-22.461,-39.551,-32.227,-27.832,0
1594927349.524,-22.461,-33.203,-30.762,-31.250,0
1594927349.528,-22.461,-29.297,-27.832,-27.344,0
1594927349.532,-30.273,-29.297,-24.414,-26.855,0
1594927349.536,-30.762,-32.227,-26.855,-37.109,0
1594927349.540,-25.879,-30.273,-29.785,-41.504,0
1594927349.544,-24.414,-27.832,-28.809,-40.527,0
1594927349.548,-33.203,-35.156,-31.250,-36.621,0
1594927349.551,-43.945,-34.180,-28.809,-35.645,0
1594927349.555,-43.457,-32.715,-31.250,-41.504,0
1594927349.559,-43.457,-39.062,-32.715,-31.738,0
1594927349.563,-48.828,-36.621,-31.250,-33.691,0
1594927349.567,-40.527,-34.180,-26.855,-40.039,0
1594927349.562,-35.645,-38.574,-23.926,-34.180,0
1594927349.566,-39.551,-40.527,-35.645,-34.180,0
1594927349.570,-38.086,-36.621,-40.527,-38.086,0
1594927349.574,-41.992,-38.574,-35.156,-41.016,0
1594927349.578,-41.016,-40.527,-30.273,-38.574,0
1594927349.582,-32.715,-38.574,-27.832,-31.738,0
1594927349.586,-27.344,-41.504,-26.367,-25.879,0
1594927349.589,-25.391,-38.086,-24.414,-32.715,0
1594927349.593,-26.855,-35.645,-31.250,-49.805,0
1594927349.597,-35.645,-32.227,-38.086,-38.574,0
1594927349.601,-31.738,-28.809,-36.133,-40.039,0
1594927349.605,-21.484,-29.785,-36.133,-47.363,0
1594927349.618,-19.043,-26.367,-38.574,-39.551,0
1594927349.622,-19.531,-37.598,-35.645,-32.227,0
1594927349.626,-26.367,-34.180,-30.762,-29.297,0
1594927349.630,-24.902,-28.320,-27.832,-33.203,0
1594927349.634,-25.879,-33.203,-27.832,-32.227,0
1594927349.638,-36.133,-36.133,-27.832,-38.086,0
1594927349.642,-35.645,-34.668,-35.156,-47.852,0
1594927349.645,-39.551,-31.250,-38.574,-54.199,0
1594927349.649,-53.223,-37.598,-37.109,-56.152,0
1594927349.653,-53.223,-37.598,-35.156,-44.922,0
1594927349.657,-44.922,-34.668,-33.203,-46.387,0
1594927349.661,-37.598,-39.551,-31.738,-50.293,0
1594927349.657,-32.227,-36.621,-27.832,-45.410,0
1594927349.661,-36.133,-33.203,-27.344,-62.012,0
1594927349.665,-45.410,-35.645,-27.344,-66.895,0
1594927349.669,-42.969,-32.227,-24.902,-50.781,0
1594927349.673,-38.086,-29.785,-20.020,-46.875,0
1594927349.677,-33.203,-33.691,-23.926,-43.457,0
1594927349.681,-31.250,-32.227,-34.668,-40.039,0
1594927349.684,-32.715,-30.273,-33.203,-48.340,0
1594927349.688,-32.227,-29.785,-32.227,-55.664,0
1594927349.692,-32.227,-28.320,-34.180,-49.805,0
1594927349.696,-30.762,-27.832,-31.250,-47.852,0
1594927349.700,-28.320,-34.180,-35.156,-55.664,0
1594927349.712,-39.551,-35.645,-36.621,-56.152,0
1594927349.716,-46.387,-39.062,-41.016,-49.316,0
1594927349.720,-41.992,-41.992,-35.156,-51.758,0
1594927349.724,-39.062,-25.879,-27.344,-49.805,0
1594927349.728,-36.133,-27.344,-25.391,-38.574,0
1594927349.732,-32.715,-29.785,-22.461,-36.621,0
1594927349.736,-32.227,-31.738,-27.832,-43.945,0
1594927349.739,-27.832,-35.156,-24.414,-33.203,0
1594927349.743,-21.973,-35.645,-23.926,-29.785,0
1594927349.747,-22.461,-35.645,-26.367,-29.297,0
1594927349.751,-26.855,-35.156,-34.668,-31.738,0
1594927349.755,-28.320,-38.574,-36.133,-32.227,0
1594927349.749,-23.438,-27.832,-26.367,-25.879,0
1594927349.753,-26.855,-29.785,-26.855,-24.902,0
1594927349.757,-31.250,-33.691,-29.297,-28.320,0
1594927349.761,-28.809,-27.344,-27.344,-27.344,0
1594927349.765,-32.227,-28.320,-28.809,-28.320,0
1594927349.769,-32.227,-31.250,-31.738,-36.621,0
1594927349.773,-34.180,-28.809,-32.227,-41.504,0
1594927349.776,-41.504,-25.879,-27.344,-34.668,0
1594927349.780,-35.645,-37.109,-37.598,-27.832,0
1594927349.784,-38.086,-51.270,-47.363,-32.227,0
1594927349.788,-41.992,-53.223,-37.109,-35.156,0
1594927349.792,-34.180,-49.316,-34.180,-36.133,0
1594927349.806,-36.133,-40.039,-31.738,-33.691,0
1594927349.810,-37.109,-41.992,-30.273,-32.715,0
1594927349.814,-31.250,-44.434,-28.809,-45.898,0
1594927349.818,-27.344,-33.203,-29.785,-45.898,0
1594927349.822,-29.297,-35.645,-27.832,-42.480,0
1594927349.826,-35.645,-42.480,-25.879,-42.969,0
1594927349.830,-27.832,-34.668,-32.227,-39.551,0
1594927349.833,-20.996,-28.809,-29.297,-35.645,0
1594927349.837,-23.926,-33.203,-27.344,-43.457,0
1594927349.841,-28.809,-34.180,-34.180,-47.852,0
1594927349.845,-26.367,-35.156,-36.621,-40.527,0
1594927349.849,-20.020,-35.156,-32.715,-44.922,0
1594927349.843,-18.066,-31.250,-30.273,-48.828,0
1594927349.847,-18.066,-32.715,-31.250,-32.227,0
1594927349.851,-21.484,-33.203,-27.344,-23.438,0
1594927349.855,-31.738,-37.598,-20.996,-27.344,0
1594927349.859,-43.457,-37.598,-22.949,-26.855,0
1594927349.863,-46.387,-33.203,-28.320,-39.551,0
1594927349.867,-47.363,-33.691,-30.762,-45.898,0
1594927349.870,-44.922,-31.250,-27.832,-42.480,0
1594927349.874,-40.039,-32.715,-26.855,-49.316,0
1594927349.878,-39.062,-35.156,-24.414,-40.039,0
1594927349.882,-36.621,-37.598,-17.578,-39.062,0
1594927349.886,-36.133,-43.945,-26.855,-43.457,0
1594927349.899,-34.668,-48.828,-41.992,-43.457,0
1594927349.903,-37.598,-49.805,-32.715,-42.969,0
1594927349.907,-44.922,-48.340,-25.391,-41.504,0
1594927349.911,-46.875,-47.852,-28.809,-41.504,0
1594927349.915,-41.504,-55.176,-29.297,-39.551,0
1594927349.919,-42.480,-48.828,-28.320,-41.504,0
1594927349.923,-37.109,-41.016,-27.832,-33.203,0
1594927349.926,-31.738,-41.504,-20.020,-25.879,0
1594927349.930,-27.344,-42.480,-26.855,-29.297,0
1594927349.934,-25.391,-44.434,-25.391,-29.297,0
1594927349.938,-29.297,-50.293,-21.484,-22.949,0
1594927349.942,-36.133,-44.434,-27.344,-27.832,0
1594927349.938,-39.062,-42.969,-24.414,-35.645,0
1594927349.942,-36.133,-45.898,-24.902,-30.273,0
1594927349.946,-35.645,-43.457,-29.297,-33.203,0
1594927349.950,-29.297,-41.504,-33.203,-35.645,0
1594927349.954,-24.414,-36.133,-32.227,-35.156,0
1594927349.958,-30.273,-33.203,-29.785,-30.273,0
1594927349.962,-28.320,-31.738,-21.484,-23.438,0
1594927349.965,-20.020,-28.320,-21.484,-21.973,0
1594927349.969,-20.020,-24.902,-37.109,-23.926,0
1594927349.973,-22.949,-23.926,-45.898,-25.391,0
1594927349.977,-21.973,-31.250,-26.367,-26.367,0
1594927349.981,-21.973,-35.156,-4.395,-22.949,0
1594927349.994,-28.320,-41.504,-11.230,-26.367,0
1594927349.998,-37.598,-46.387,-28.809,-27.344,0
1594927350.002,-39.062,-43.457,-22.949,-32.715,0
1594927350.006,-36.621,-40.527,-17.090,-37.598,0
1594927350.010,-35.645,-36.621,-27.832,-35.645,0
1594927350.014,-35.156,-38.574,-27.832,-34.180,0
1594927350.018,-37.598,-43.457,-24.414,-28.320,0
1594927350.021,-38.574,-39.551,-20.508,-28.809,0
1594927350.025,-40.527,-36.621,-18.555,-31.250,0
1594927350.029,-39.062,-41.504,-20.020,-31.250,0
1594927350.033,-41.016,-49.805,-17.090,-33.691,0
1594927350.037,-33.203,-38.574,-16.113,-33.203,0
1594927350.031,-25.879,-24.902,-20.020,-35.156,0
1594927350.035,-29.785,-13.184,-20.020,-33.203,0
1594927350.039,-27.344,-9.766,-19.531,-22.949,0
1594927350.043,-18.066,-20.508,-23.438,-24.902,0
1594927350.047,-20.020,-23.926,-23.926,-26.367,0
1594927350.051,-26.367,-25.879,-24.902,-19.531,0
1594927350.055,-22.461,-28.320,-26.855,-23.926,0
1594927350.058,-25.391,-35.156,-35.156,-28.809,0
1594927350.062,-28.320,-36.621,-51.270,-29.297,0
1594927350.066,-25.879,-37.598,-35.645,-22.949,0
1594927350.070,-27.344,-43.457,-18.555,-27.344,0
1594927350.074,-20.508,-32.227,-28.809,-32.227,0
1594927350.087,-19.043,-28.809,-34.180,-36.133,0
1594927350.091,-22.461,-41.016,-30.762,-39.551,0
1594927350.095,-19.531,-34.668,-23.438,-36.133,0
1594927350.099,-18.555,-34.180,-24.902,-28.320,0
1594927350.103,-20.020,-39.062,-32.715,-33.691,1
1594927350.107,-25.879,-35.645,-30.273,-38.086,0
1594927350.111,-30.762,-37.598,-25.391,-31.250,0
1594927350.114,-32.227,-37.598,-26.855,-33.203,0
1594927350.118,-31.250,-29.297,-29.785,-36.133,0
1594927350.122,-27.344,-28.320,-32.227,-31.738,0
1594927350.126,-26.367,-33.203,-31.250,-42.480,0
1594927350.130,-29.785,-29.297,-30.762,-41.504,0
1594927350.124,-25.879,-23.926,-33.691,-30.273,0
1594927350.128,-31.250,-30.762,-33.203,-37.109,0
1594927350.132,-34.668,-35.645,-29.785,-41.016,0
1594927350.136,-22.461,-32.715,-29.297,-34.668,0
1594927350.140,-21.973,-29.785,-33.691,-42.969,0
1594927350.144,-25.391,-36.621,-38.574,-44.434,0
1594927350.148,-22.949,-41.992,-37.598,-46.387,0
1594927350.151,-28.320,-38.574,-31.738,-52.246,0
1594927350.155,-34.668,-41.504,-28.320,-54.199,0
1594927350.159,-28.809,-40.039,-25.879,-42.969,0
1594927350.163,-31.738,-35.645,-26.367,-38.086,0
1594927350.167,-33.203,-34.668,-21.973,-47.363,0
1594927350.181,-27.344,-38.086,-23.926,-44.434,0
1594927350.185,-28.320,-40.039,-32.715,-33.691,0
1594927350.189,-27.832,-41.016,-34.668,-37.109,0
1594927350.193,-29.785,-41.016,-34.180,-43.945,0
1594927350.197,-31.250,-40.527,-32.227,-49.316,0
1594927350.201,-30.762,-39.551,-37.598,-56.152,0
1594927350.205,-30.273,-36.621,-31.738,-51.270,0
1594927350.208,-30.762,-41.016,-10.254,-45.898,0
1594927350.212,-33.691,-47.852,-17.090,-50.293,0
1594927350.216,-34.180,-34.180,-21.973,-49.316,0
1594927350.220,-32.715,-34.180,-20.508,-47.363,0
1594927350.224,-30.273,-37.598,-22.461,-50.781,0
1594927350.219,-24.414,-34.668,-22.461,-46.875,0
1594927350.223,-16.113,-27.832,-24.902,-41.016,0
1594927350.227,-11.230,-23.438,-26.855,-43.457,0
1594927350.231,-14.648,-36.133,-29.297,-38.086,0
1594927350.235,-25.879,-37.598,-26.855,-37.109,0
1594927350.239,-23.438,-36.133,-24.902,-50.781,0
1594927350.243,-17.090,-41.016,-23.926,-56.152,0
1594927350.246,-15.625,-45.410,-23.926,-47.363,0
1594927350.250,-17.090,-43.457,-26.367,-38.086,0
1594927350.254,-15.137,-36.133,-23.438,-32.227,0
1594927350.258,-15.137,-35.645,-28.320,-37.598,0
1594927350.262,-21.973,-41.992,-32.227,-34.180,0
1594927350.274,-25.391,-39.062,-32.715,-34.668,0
1594927350.278,-23.438,-40.527,-35.156,-31.738,0
1594927350.282,-20.996,-33.691,-29.785,-29.297,0
1594927350.286,-19.531,-31.738,-31.738,-34.668,0
1594927350.290,-16.602,-37.598,-35.645,-35.645,0
1594927350.294,-19.531,-38.574,-33.203,-33.203,0
1594927350.298,-26.855,-41.016,-33.203,-20.020,0
1594927350.301,-27.344,-39.062,-31.738,-22.461,0
1594927350.305,-28.320,-39.062,-29.785,-33.691,0
1594927350.309,-32.715,-40.039,-31.250,-34.180,0
1594927350.313,-36.133,-41.504,-35.645,-35.645,0
1594927350.317,-29.785,-41.016,-37.109,-27.344,0
1594927350.313,-34.668,-36.621,-35.645,-28.809,0
1594927350.317,-35.645,-40.039,-33.203,-33.691,0
1594927350.321,-31.738,-46.387,-27.832,-27.344,0
1594927350.325,-30.273,-35.156,-27.344,-23.926,0
1594927350.329,-31.738,-26.855,-25.879,-24.414,0
1594927350.333,-44.434,-36.621,-26.855,-38.574,0
1594927350.337,-40.039,-29.297,-25.879,-35.156,0
1594927350.340,-24.902,-21.973,-22.949,-24.414,0
1594927350.344,-23.438,-26.855,-26.367,-33.691,0
1594927350.348,-20.996,-31.738,-31.250,-30.762,0
1594927350.352,-18.066,-27.344,-27.344,-31.250,0
1594927350.356,-16.113,-24.902,-23.438,-29.785,0
1594927350.368,-25.391,-28.320,-26.855,-25.391,0
1594927350.372,-30.273,-31.738,-30.273,-32.227,0
1594927350.376,-31.250,-29.785,-32.227,-35.645,0
1594927350.380,-34.668,-32.227,-30.762,-36.621,0
1594927350.384,-29.297,-30.273,-28.809,-39.551,0
1594927350.388,-20.508,-27.344,-32.715,-34.668,0
1594927350.392,-18.066,-31.738,-32.227,-26.367,0
1594927350.395,-20.020,-27.832,-28.320,-34.180,0
1594927350.399,-20.996,-24.414,-24.414,-38.574,0
1594927350.403,-23.438,-31.738,-31.250,-36.133,0
1594927350.407,-26.855,-40.527,-36.133,-35.156,0
1594927350.411,-23.438,-35.156,-31.250,-35.156,0
1594927350.406,-23.438,-31.250,-27.832,-37.598,0
1594927350.410,-29.297,-39.062,-31.250,-33.203,0
1594927350.414,-24.902,-42.969,-31.738,-29.297,0
1594927350.418,-25.879,-37.109,-29.297,-39.551,0
1594927350.422,-30.273,-34.180,-28.320,-37.109,0
1594927350.426,-33.691,-36.621,-27.344,-23.926,0
1594927350.430,-45.898,-35.156,-31.250,-24.902,0
1594927350.433,-44.922,-36.133,-30.762,-27.832,0
1594927350.437,-41.016,-42.480,-34.180,-33.691,0
1594927350.441,-41.504,-40.527,-36.621,-37.598,0
1594927350.445,-37.109,-33.691,-31.738,-40.039,0
1594927350.449,-37.598,-37.598,-31.250,-46.387,0
1594927350.462,-41.992,-41.504,-35.645,-54.688,0
1594927350.466,-41.016,-40.039,-52.734,-52.734,0
1594927350.470,-42.480,-34.180,-50.293,-43.457,0
1594927350.474,-45.898,-37.109,-29.297,-45.898,0
1594927350.478,-43.945,-39.062,-33.203,-49.805,0
1594927350.482,-40.039,-36.621,-41.504,-44.922,0
1594927350.486,-41.016,-36.621,-37.109,-41.016,0
1594927350.489,-41.016,-32.715,-37.109,-46.875,0
1594927350.493,-44.434,-41.504,-39.551,-47.363,0
1594927350.497,-44.434,-42.480,-32.715,-44.434,0
1594927350.501,-41.016,-33.203,-30.273,-41.992,0
1594927350.505,-35.156,-36.621,-34.180,-40.527,0
1594927350.499,-32.715,-39.551,-35.156,-47.363,0
1594927350.503,-37.598,-41.992,-31.738,-37.598,0
1594927350.507,-34.668,-38.086,-30.273,-33.203,0
1594927350.511,-31.250,-32.227,-35.156,-34.668,0
1594927350.515,-34.180,-34.180,-39.551,-26.855,0
1594927350.519,-36.621,-41.992,-39.062,-27.832,0
1594927350.523,-31.250,-41.504,-36.133,-25.391,0
1594927350.526,-30.762,-38.086,-35.156,-17.090,0
1594927350.530,-30.273,-33.691,-35.156,-26.367,0
1594927350.534,-28.809,-32.227,-30.273,-26.367,0
1594927350.538,-34.668,-28.809,-24.902,-23.438,0
1594927350.542,-30.273,-24.414,-27.344,-25.879,0
1594927350.556,-25.879,-27.344,-28.809,-35.156,0
1594927350.560,-35.156,-32.227,-32.227,-42.480,0
1594927350.564,-37.598,-31.250,-33.203,-36.621,0
1594927350.568,-30.273,-23.438,-31.738,-41.016,0
1594927350.572,-34.180,-27.344,-29.297,-46.387,0
1594927350.576,-37.598,-28.809,-32.227,-39.062,0
1594927350.580,-30.273,-26.367,-31.738,-30.273,0
1594927350.583,-30.273,-32.715,-28.809,-31.738,0
1594927350.587,-36.133,-29.297,-29.785,-31.738,0
1594927350.591,-37.598,-26.367,-31.738,-32.227,0
1594927350.595,-40.527,-34.668,-34.668,-35.156,0
1594927350.599,-41.992,-40.039,-35.156,-37.598,0
1594927350.593,-37.109,-38.086,-33.203,-44.922,0
1594927350.597,-40.039,-36.133,-35.156,-48.340,0
1594927350.601,-41.016,-38.086,-35.156,-43.945,0
1594927350.605,-30.762,-40.527,-36.621,-33.691,0
1594927350.609,-32.227,-39.062,-38.086,-32.715,0
1594927350.613,-37.109,-41.016,-39.062,-38.086,0
1594927350.617,-33.691,-43.945,-37.109,-34.180,0
1594927350.620,-31.250,-45.410,-23.926,-34.668,0
1594927350.624,-32.227,-50.781,-27.832,-41.016,0
1594927350.628,-33.691,-52.734,-35.645,-41.504,0
1594927350.632,-26.855,-41.992,-27.344,-41.504,0
1594927350.636,-21.973,-41.504,-28.320,-33.691,0
1594927350.649,-30.273,-37.598,-32.227,-35.156,0
1594927350.653,-34.180,-33.203,-32.227,-43.945,0
1594927350.657,-34.180,-32.715,-27.832,-42.969,0
1594927350.661,-32.227,-37.109,-23.438,-41.504,0
1594927350.665,-31.250,-40.039,-29.785,-44.434,0
1594927350.669,-27.832,-38.574,-35.156,-47.852,0
1594927350.673,-24.414,-37.109,-41.016,-50.293,0
1594927350.676,-23.438,-30.273,-39.551,-56.152,0
1594927350.680,-16.113,-27.344,-37.109,-56.152,0
1594927350.684,-13.184,-27.344,-33.203,-54.199,0
1594927350.688,-15.625,-27.344,-35.645,-57.129,0
1594927350.692,-24.414,-26.855,-38.086,-50.293,0
1594927350.688,-33.203,-27.832,-32.227,-38.086,0
1594927350.692,-32.227,-31.250,-27.832,-33.691,0
1594927350.696,-31.738,-35.645,-26.855,-29.785,0
1594927350.700,-35.645,-38.086,-29.297,-25.879,0
1594927350.704,-39.551,-38.086,-28.809,-27.344,0
1594927350.708,-28.809,-37.598,-22.949,-23.438,0
1594927350.712,-17.090,-38.086,-24.414,-27.344,0
1594927350.715,-20.508,-36.621,-26.855,-32.715,0
1594927350.719,-20.996,-30.762,-26.855,-17.578,0
1594927350.723,-18.066,-30.762,-21.973,-9.277,0
1594927350.727,-14.160,-39.062,-18.066,-18.066,0
1594927350.731,-22.949,-49.316,-27.344,-21.484,0
1594927350.743,-26.855,-51.758,-33.691,-22.461,0
1594927350.747,-16.113,-47.363,-29.785,-18.066,0
1594927350.751,-15.625,-47.363,-23.926,-13.672,0
1594927350.755,-18.555,-44.434,-22.949,-22.461,0
1594927350.759,-22.949,-39.551,-25.391,-33.691,0
1594927350.763,-27.344,-42.969,-23.438,-34.180,0
1594927350.767,-31.250,-41.504,-20.020,-22.949,0
1594927350.770,-34.668,-41.504,-23.438,-23.438,0
1594927350.774,-33.691,-43.945,-26.855,-33.691,0
1594927350.778,-32.715,-44.434,-26.367,-38.574,0
1594927350.782,-25.391,-46.387,-31.738,-37.598,0
1594927350.786,-23.438,-47.363,-31.738,-34.668,0
1594927350.781,-20.996,-48.340,-31.738,-39.551,0
1594927350.785,-19.531,-49.316,-33.203,-39.062,0
1594927350.789,-20.996,-46.875,-47.363,-37.109,0
1594927350.793,-22.461,-47.852,-55.176,-42.480,0
1594927350.797,-31.250,-41.992,-62.988,-44.922,0
1594927350.801,-29.785,-46.387,-57.129,-45.898,0
1594927350.805,-22.949,-44.434,-42.969,-37.598,0
1594927350.808,-25.391,-42.969,-41.504,-37.598,0
1594927350.812,-32.227,-45.898,-38.086,-36.133,0
1594927350.816,-36.621,-42.480,-36.621,-28.809,1
1594927350.820,-34.668,-42.969,-32.227,-36.621,0
1594927350.824,-26.855,-35.156,-32.715,-34.668,0
1594927350.837,-22.949,-27.344,-34.180,-29.297,0
1594927350.841,-26.367,-41.016,-35.645,-25.879,0
1594927350.845,-24.902,-40.039,-23.438,-29.297,0
1594927350.849,-26.367,-38.086,-17.578,-37.598,0
1594927350.853,-23.438,-44.922,-19.043,-36.133,0
1594927350.857,-21.484,-54.688,-20.020,-35.156,0
1594927350.861,-35.156,-60.059,-24.902,-40.527,0
1594927350.864,-37.598,-44.434,-20.996,-44.434,0
1594927350.868,-26.855,-40.527,-23.926,-41.016,0
1594927350.872,-24.414,-30.273,-25.879,-41.504,0
1594927350.876,-31.250,-28.809,-23.926,-43.457,0
1594927350.880,-29.785,-34.668,-27.832,-42.969,0
1594927350.874,-34.668,-24.902,-28.809,-50.293,0
1594927350.878,-34.668,-8.789,-29.297,-52.246,0
1594927350.882,-37.109,-6.348,-29.297,-53.711,0
1594927350.886,-41.504,-20.508,-30.273,-50.293,0
1594927350.890,-28.809,-32.715,-28.320,-42.480,0
1594927350.894,-30.762,-40.039,-25.879,-48.828,0
1594927350.898,-34.180,-37.598,-20.996,-48.828,0
1594927350.901,-28.320,-31.250,-29.785,-43.457,0
1594927350.905,-28.809,-32.715,-36.621,-38.574,0
1594927350.909,-34.180,-37.598,-30.762,-34.180,0
1594927350.913,-40.039,-38.086,-27.344,-44.434,0
1594927350.917,-47.363,-40.527,-30.762,-48.828,0
1594927350.931,-45.410,-39.551,-27.832,-45.410,0
1594927350.935,-36.621,-36.133,-24.414,-37.109,0
1594927350.939,-41.504,-39.062,-26.855,-55.664,0
1594927350.943,-47.363,-41.016,-26.367,-68.359,0
1594927350.947,-54.688,-41.504,-22.949,-53.711,0
1594927350.951,-59.570,-40.039,-25.879,-47.852,0
1594927350.955,-41.992,-36.621,-25.391,-40.039,0
1594927350.958,-39.062,-37.598,-20.020,-41.016,0
1594927350.962,-37.109,-40.039,-25.879,-42.969,0
1594927350.966,-32.227,-39.062,-29.297,-40.039,0
1594927350.970,-33.203,-39.062,-33.203,-38.086,0
1594927350.974,-27.344,-40.527,-34.180,-40.527,0
1594927350.969,-28.320,-37.598,-29.297,-39.062,0
1594927350.973,-30.273,-34.180,-29.297,-38.086,0
1594927350.977,-31.250,-39.062,-37.598,-37.109,0
1594927350.981,-34.180,-36.621,-45.898,-33.691,0
1594927350.985,-30.762,-34.668,-34.180,-36.133,0
1594927350.989,-32.715,-39.062,-31.250,-44.434,0
1594927350.993,-39.551,-32.715,-28.809,-43.945,0
1594927350.996,-47.363,-35.645,-24.902,-52.734,0
1594927351.000,-46.875,-42.969,-33.203,-50.781,0
1594927351.004,-47.852,-45.898,-28.809,-40.039,0
1594927351.008,-41.504,-42.969,-25.879,-46.387,0
1594927351.012,-37.598,-35.645,-28.809,-46.875,0
1594927351.024,-37.598,-32.715,-32.227,-45.898,0
1594927351.028,-35.156,-42.969,-34.180,-41.992,0
1594927351.032,-36.621,-39.551,-25.879,-37.109,0
1594927351.036,-35.156,-30.762,-26.367,-38.086,0
1594927351.040,-35.645,-39.062,-26.367,-33.691,0
1594927351.044,-37.598,-43.457,-26.855,-30.762,0
1594927351.048,-34.180,-39.062,-31.250,-26.855,0
1594927351.051,-27.832,-31.250,-29.785,-19.043,0
1594927351.055,-29.297,-28.809,-25.879,-28.320,0
1594927351.059,-30.273,-30.273,-28.320,-34.668,0
1594927351.063,-23.438,-29.297,-27.832,-30.762,0
1594927351.067,-24.414,-23.438,-22.949,-32.715,0
1594927351.062,-24.902,-21.484,-25.879,-32.715,0
1594927351.066,-30.273,-26.367,-28.809,-37.109,0
1594927351.070,-31.738,-28.320,-28.809,-46.875,0
1594927351.074,-33.203,-35.156,-28.320,-45.410,0
1594927351.078,-41.504,-38.574,-30.273,-37.598,0
1594927351.082,-43.457,-35.645,-33.203,-43.457,0
1594927351.086,-38.574,-32.715,-28.320,-42.969,0
1594927351.089,-34.180,-33.691,-26.855,-24.902,0
1594927351.093,-32.715,-39.062,-27.344,-16.602,0
1594927351.097,-34.668,-35.156,-23.926,-18.555,0
1594927351.101,-43.457,-31.250,-22.461,-16.113,0
1594927351.105,-39.551,-41.504,-31.250,-27.344,0
1594927351.118,-35.156,-48.340,-27.832,-30.762,0
1594927351.122,-39.062,-45.410,-24.902,-29.297,0
1594927351.126,-37.598,-39.551,-29.297,-40.039,0
1594927351.130,-38.574,-38.574,-23.926,-30.273,0
1594927351.134,-42.480,-36.621,-25.391,-12.207,0
1594927351.138,-35.645,-30.762,-25.879,-10.254,0
1594927351.142,-31.250,-29.785,-24.902,-23.926,0
1594927351.145,-31.738,-29.785,-26.367,-29.297,0
1594927351.149,-36.133,-20.020,-23.926,-29.297,0
1594927351.153,-39.062,-17.090,-26.367,-34.668,0
1594927351.157,-40.039,-31.738,-29.297,-38.086,0
1594927351.161,-39.062,-31.250,-33.691,-39.551,0
1594927351.156,-31.250,-29.785,-30.762,-41.016,0
1594927351.160,-35.156,-33.691,-26.855,-39.551,0
1594927351.164,-36.133,-34.180,-28.320,-41.016,0
1594927351.168,-31.738,-33.691,-28.809,-36.133,0
1594927351.172,-36.621,-33.203,-33.203,-33.691,0
1594927351.176,-38.574,-33.203,-30.273,-35.645,0
1594927351.180,-41.016,-29.785,-27.832,-39.062,0
1594927351.183,-43.945,-27.344,-32.227,-43.945,0
1594927351.187,-40.527,-28.809,-29.297,-37.598,0
1594927351.191,-34.668,-31.250,-26.855,-28.809,0
1594927351.195,-36.133,-25.879,-28.809,-33.203,0
1594927351.199,-39.062,-25.879,-29.785,-32.227,0
1594927351.213,-36.621,-27.832,-30.273,-27.832,0
1594927351.217,-28.809,-23.926,-31.738,-31.250,0
1594927351.221,-29.785,-20.020,-27.832,-38.086,0
1594927351.225,-27.832,-23.438,-21.484,-36.133,0
1594927351.229,-19.531,-25.879,-21.973,-32.227,0
1594927351.233,-21.973,-29.785,-26.367,-21.973,0
1594927351.237,-26.855,-32.227,-31.250,-33.203,0
1594927351.240,-25.391,-23.438,-27.344,-43.457,0
1594927351.244,-28.320,-18.066,-26.367,-31.738,0
1594927351.248,-24.902,-21.484,-30.273,-34.668,0
1594927351.252,-23.926,-19.531,-30.762,-36.621,0
1594927351.256,-30.762,-22.461,-33.691,-35.156,0
1594927351.249,-28.809,-28.320,-36.133,-32.715,0
1594927351.253,-26.367,-30.762,-30.762,-31.250,0
1594927351.257,-24.902,-33.203,-21.484,-29.785,0
1594927351.261,-31.738,-34.180,-28.809,-28.809,0
1594927351.265,-33.203,-37.109,-26.855,-33.203,0
1594927351.269,-32.227,-34.668,-20.996,-34.668,0
1594927351.273,-27.344,-36.621,-21.973,-35.645,0
1594927351.276,-24.902,-29.297,-25.391,-35.156,0
1594927351.280,-27.832,-16.113,-29.785,-35.156,0
1594927351.284,-28.320,-25.879,-27.832,-30.762,0
1594927351.288,-27.344,-29.785,-26.855,-35.156,0
1594927351.292,-35.156,-29.785,-29.297,-38.574,0
1594927351.306,-39.551,-34.180,-26.367,-38.574,0
1594927351.310,-36.133,-34.668,-21.484,-31.738,0
1594927351.314,-36.133,-29.785,-20.508,-27.344,0
1594927351.318,-29.785,-24.414,-23.926,-46.387,0
1594927351.322,-27.344,-23.926,-26.855,-42.969,0
1594927351.326,-31.738,-29.785,-27.832,-39.551,0
1594927351.330,-32.227,-27.832,-34.180,-43.457,0
1594927351.333,-39.551,-27.344,-30.762,-42.969,0
1594927351.337,-40.039,-32.227,-28.320,-46.875,0
1594927351.341,-37.598,-36.133,-31.738,-57.617,0
1594927351.345,-35.645,-36.621,-34.668,-53.711,0
1594927351.349,-43.945,-28.809,-36.621,-45.898,0
1594927351.343,-44.434,-30.762,-29.785,-41.992,0
1594927351.347,-39.062,-39.062,-26.855,-37.109,0
1594927351.351,-44.434,-42.969,-29.297,-38.086,0
1594927351.355,-45.410,-37.109,-28.320,-35.645,0
1594927351.359,-48.828,-37.109,-27.832,-43.457,0
1594927351.363,-39.551,-44.434,-19.531,-44.922,0
1594927351.367,-32.227,-41.016,-21.973,-34.668,0
1594927351.370,-31.250,-32.227,-27.832,-32.227,0
1594927351.374,-24.414,-42.969,-27.344,-26.367,0
1594927351.378,-22.949,-43.457,-27.344,-24.414,0
1594927351.382,-33.691,-36.133,-27.344,-36.621,0
1594927351.386,-33.203,-32.715,-25.879,-37.598,0
1594927351.399,-26.367,-29.297,-21.973,-31.250,0
1594927351.403,-32.715,-30.762,-23.438,-26.367,0
1594927351.407,-42.480,-28.809,-33.691,-23.438,0
1594927351.411,-44.922,-26.367,-28.320,-31.250,0
1594927351.415,-34.180,-27.832,-12.695,-35.645,0
1594927351.419,-34.668,-30.762,-13.184,-31.738,0
1594927351.423,-45.410,-35.645,-23.926,-35.156,0
1594927351.426,-42.480,-32.227,-21.973,-34.668,0
1594927351.430,-40.527,-31.738,-21.484,-33.691,0
1594927351.434,-44.434,-38.086,-20.996,-36.621,0
1594927351.438,-43.457,-35.645,-21.973,-33.203,0
1594927351.442,-47.363,-28.809,-21.484,-39.551,0
1594927351.438,-52.734,-27.344,-22.461,-48.340,0
1594927351.442,-54.199,-33.203,-20.996,-39.551,0
1594927351.446,-50.781,-34.668,-23.438,-34.668,0
1594927351.450,-45.898,-33.203,-28.809,-25.879,0
1594927351.454,-41.504,-30.762,-22.461,-14.160,0
1594927351.458,-41.992,-24.414,-19.531,-20.508,0
1594927351.462,-34.180,-25.391,-22.461,-24.414,0
1594927351.465,-27.832,-31.250,-22.949,-24.414,0
1594927351.469,-29.297,-31.738,-40.039,-30.762,0
1594927351.473,-25.879,-29.297,-42.480,-32.715,0
1594927351.477,-25.879,-34.668,-28.320,-40.527,0
1594927351.481,-25.879,-30.273,-34.668,-50.293,0
1594927351.494,-22.949,-16.602,-37.598,-47.363,0
1594927351.498,-13.672,-11.230,-30.762,-37.598,0
1594927351.502,-8.301,-14.648,-26.367,-37.598,0
1594927351.506,-15.137,-17.578,-26.855,-44.922,0
1594927351.510,-25.879,-22.461,-26.367,-39.551,0
1594927351.514,-32.227,-34.180,-24.902,-24.414,0
1594927351.518,-40.039,-39.062,-23.926,-18.066,0
1594927351.521,-46.875,-30.762,-27.832,-13.672,0
1594927351.525,-54.688,-25.879,-32.227,-26.367,0
1594927351.529,-54.199,-31.250,-35.156,-36.621,0
1594927351.533,-43.945,-32.227,-30.762,-33.203,0
1594927351.537,-45.898,-31.738,-24.902,-38.574,0
1594927351.531,-51.270,-36.133,-23.438,-41.016,0
1594927351.535,-49.805,-37.109,-23.438,-31.250,0
1594927351.539,-38.574,-32.715,-24.414,-25.391,0
1594927351.543,-37.109,-32.227,-21.973,-31.250,0
1594927351.547,-45.410,-34.668,-20.020,-34.668,0
1594927351.551,-39.551,-35.645,-23.438,-33.203,0
1594927351.555,-27.832,-34.668,-22.949,-27.832,0
1594927351.558,-27.344,-34.668,-22.461,-31.250,0
1594927351.562,-35.645,-38.086,-27.832,-34.180,0
1594927351.566,-37.109,-33.691,-30.273,-35.156,0
1594927351.570,-34.180,-27.344,-23.926,-39.062,0
1594927351.574,-31.250,-36.133,-20.020,-28.809,0
1594927351.587,-23.926,-36.621,-23.438,-28.809,2
1594927351.591,-23.926,-35.645,-26.855,-26.855,0
1594927351.595,-36.133,-38.086,-23.438,-20.020,0
1594927351.599,-30.762,-33.691,-22.949,-23.438,0
1594927351.603,-27.344,-39.551,-30.273,-27.832,0
1594927351.607,-36.621,-36.621,-32.227,-34.668,0
1594927351.611,-33.203,-25.879,-27.832,-31.738,0
1594927351.614,-32.227,-26.855,-25.879,-33.691,0
1594927351.618,-33.203,-30.273,-27.832,-36.133,0
1594927351.622,-34.180,-33.691,-27.344,-35.645,0
1594927351.626,-39.551,-46.387,-25.879,-45.410,0
1594927351.630,-35.156,-46.875,-34.180,-39.062,0
1594927351.624,-30.273,-41.504,-31.738,-35.645,0
1594927351.628,-35.156,-43.945,-29.297,-40.527,0
1594927351.632,-33.203,-46.387,-35.645,-38.086,0
1594927351.636,-30.273,-45.410,-38.086,-42.969,0
1594927351.640,-32.715,-33.691,-37.598,-38.574,0
1594927351.644,-29.785,-37.598,-33.691,-29.297,0
1594927351.648,-37.598,-45.410,-29.297,-38.086,0
1594927351.651,-44.434,-38.574,-32.715,-44.434,0
1594927351.655,-41.016,-35.156,-34.180,-38.086,0
1594927351.659,-40.039,-37.109,-33.691,-37.109,0
1594927351.663,-36.133,-37.109,-38.574,-33.203,0
1594927351.667,-27.832,-35.645,-32.715,-27.832,0
1594927351.681,-27.832,-35.645,-20.996,-28.809,0
1594927351.685,-37.598,-42.480,-20.020,-31.250,0
1594927351.689,-30.273,-41.504,-17.578,-32.715,0
1594927351.693,-23.926,-44.434,-19.043,-33.203,0
1594927351.697,-22.949,-49.316,-21.973,-28.809,0
1594927351.701,-22.949,-46.875,-29.297,-27.832,0
1594927351.705,-26.855,-48.340,-32.227,-28.809,0
1594927351.708,-30.762,-41.504,-25.391,-36.133,0
1594927351.712,-28.320,-41.504,-27.344,-41.992,0
1594927351.716,-18.066,-49.316,-29.297,-40.527,0
1594927351.720,-20.020,-47.363,-28.320,-39.062,0
1594927351.724,-25.879,-41.016,-27.344,-34.668,0
1594927351.718,-26.367,-45.410,-26.855,-36.133,0
1594927351.722,-27.344,-50.293,-26.855,-36.133,0
1594927351.726,-29.785,-47.852,-28.320,-31.738,0
1594927351.730,-30.273,-43.457,-33.203,-40.039,0
1594927351.734,-31.250,-45.410,-33.691,-30.762,0
1594927351.738,-33.691,-43.945,-30.762,-23.438,0
1594927351.742,-33.691,-37.109,-28.320,-24.414,0
1594927351.745,-41.016,-38.574,-29.785,-33.203,0
1594927351.749,-40.039,-35.645,-30.762,-39.551,0
1594927351.753,-31.738,-26.855,-22.461,-21.484,0
1594927351.757,-30.762,-24.414,-21.484,-31.250,0
1594927351.761,-37.109,-25.879,-27.344,-59.082,0
1594927351.774,-40.527,-23.926,-25.391,-58.105,0
1594927351.778,-36.621,-19.043,-21.484,-39.551,0
1594927351.782,-34.668,-21.484,-21.973,-34.180,0
1594927351.786,-31.250,-31.250,-26.367,-30.762,0
1594927351.790,-35.645,-28.320,-32.715,-27.344,0
1594927351.794,-29.785,-24.902,-35.645,-27.832,0
1594927351.798,-24.902,-35.156,-22.461,-20.508,0
1594927351.801,-31.738,-35.645,-17.090,-26.855,0
1594927351.805,-30.762,-34.180,-19.531,-30.762,0
1594927351.809,-23.438,-31.250,-19.531,-13.672,0
1594927351.813,-19.531,-30.273,-24.414,-5.859,0
1594927351.817,-19.043,-29.785,-23.438,6.348,0
1594927351.812,-29.785,-26.855,-21.973,-8.301,0
1594927351.816,-27.344,-28.320,-23.926,-23.438,0
1594927351.820,-22.461,-30.273,-13.184,-15.625,0
1594927351.824,-23.438,-35.645,-20.020,-18.066,0
1594927351.828,-26.367,-38.086,-24.902,-22.461,0
1594927351.832,-26.855,-33.203,-28.320,-21.484,0
1594927351.836,-27.832,-23.438,-39.062,-24.902,0
1594927351.839,-34.180,-21.484,-35.645,-33.691,0
1594927351.843,-35.645,-26.367,-38.086,-35.645,0
1594927351.847,-37.598,-29.785,-42.480,-36.621,0
1594927351.851,-40.039,-28.809,-39.062,-50.781,0
1594927351.855,-26.855,-29.297,-38.086,-53.711,0
1594927351.868,-21.973,-30.273,-38.574,-49.316,0
1594927351.872,-29.785,-35.156,-39.551,-37.598,0
1594927351.876,-33.203,-34.180,-37.109,-29.297,0
1594927351.880,-28.809,-29.785,-36.621,-29.297,0
1594927351.884,-29.785,-34.668,-35.645,-28.809,0
1594927351.888,-32.227,-45.898,-33.691,-29.297,0
1594927351.892,-36.621,-50.293,-38.086,-28.320,0
1594927351.895,-44.922,-36.133,-33.691,-37.109,0
1594927351.899,-40.039,-26.367,-28.320,-47.363,0
1594927351.903,-33.203,-28.809,-27.832,-44.922,0
1594927351.907,-41.504,-27.832,-26.855,-45.410,0
1594927351.911,-43.945,-30.273,-23.926,-45.898,0
1594927351.907,-46.875,-32.227,-27.344,-45.898,0
1594927351.911,-47.852,-36.133,-34.180,-40.527,0
1594927351.915,-44.434,-38.086,-30.762,-39.551,0
1594927351.919,-45.898,-37.598,-32.715,-37.109,0
1594927351.923,-38.086,-28.320,-30.273,-34.668,0
1594927351.927,-26.367,-27.344,-24.902,-29.297,0
1594927351.931,-26.855,-30.273,-26.367,-32.227,0
1594927351.934,-28.809,-22.949,-24.902,-41.504,0
1594927351.938,-20.996,-18.066,-23.926,-27.344,0
1594927351.942,-21.973,-20.508,-20.996,-19.043,0
1594927351.946,-30.273,-27.832,-16.602,-29.785,0
1594927351.950,-33.203,-29.297,-23.438,-32.715,0
1594927351.963,-30.273,-24.902,-27.344,-32.227,0
1594927351.967,-32.715,-32.227,-20.996,-36.621,0
1594927351.971,-34.180,-29.785,-23.438,-36.621,0
1594927351.975,-33.203,-23.926,-23.438,-27.832,0
1594927351.979,-33.691,-23.926,-19.043,-30.762,0
1594927351.983,-30.273,-22.461,-18.066,-36.621,0
1594927351.987,-28.320,-24.414,-24.902,-36.133,0
1594927351.990,-29.297,-22.949,-22.949,-36.133,0
1594927351.994,-27.344,-21.973,-22.461,-35.156,0
1594927351.998,-26.855,-24.902,-23.438,-34.668,0
1594927352.002,-31.250,-34.668,-28.320,-34.668,0
1594927352.006,-32.227,-45.898,-27.832,-38.574,0
1594927351.999,-31.250,-34.668,-21.484,-44.922,0
1594927352.003,-41.992,-33.691,-26.367,-56.152,0
1594927352.007,-46.875,-43.457,-30.762,-49.805,0
1594927352.011,-33.691,-45.898,-32.715,-35.156,0
1594927352.015,-31.250,-41.992,-29.785,-42.480,0
1594927352.019,-31.738,-39.062,-27.832,-37.109,0
1594927352.023,-32.715,-40.039,-31.250,-26.855,0
1594927352.026,-34.668,-40.527,-34.180,-36.133,0
1594927352.030,-29.297,-38.574,-32.715,-33.203,0
1594927352.034,-30.273,-36.621,-32.227,-21.973,0
1594927352.038,-41.016,-38.574,-30.273,-27.832,0
1594927352.042,-36.621,-42.480,-35.645,-30.273,0
1594927352.056,-26.855,-44.922,-29.297,-34.668,0
1594927352.060,-32.715,-48.340,-21.973,-36.133,0
1594927352.064,-36.133,-44.922,-20.996,-26.367,0
1594927352.068,-36.133,-41.016,-21.973,-25.391,0
1594927352.072,-32.715,-41.992,-30.762,-20.996,0
1594927352.076,-36.133,-41.992,-24.414,-22.461,0
1594927352.080,-41.504,-40.527,-26.367,-28.320,0
1594927352.083,-40.039,-33.203,-20.996,-29.785,0
1594927352.087,-31.250,-30.273,-24.902,-30.273,0
1594927352.091,-29.785,-40.527,-35.645,-34.180,0
1594927352.095,-34.180,-38.574,-30.762,-33.691,0
1594927352.099,-33.691,-32.227,-27.832,-37.109,0
1594927352.093,-34.668,-32.715,-26.367,-42.480,0
1594927352.097,-37.598,-36.133,-29.785,-40.527,0
1594927352.101,-33.691,-38.086,-28.809,-38.574,0
1594927352.105,-30.273,-40.039,-28.809,-34.668,0
1594927352.109,-29.785,-37.598,-28.809,-40.527,0
1594927352.113,-30.273,-33.203,-31.738,-52.246,0
1594927352.117,-32.715,-33.691,-33.203,-53.223,0
1594927352.120,-39.062,-32.715,-32.227,-59.082,0
1594927352.124,-28.809,-30.762,-25.879,-43.457,0
1594927352.128,-21.973,-37.109,-21.973,-23.926,0
1594927352.132,-28.320,-39.551,-30.762,-33.203,0
1594927352.136,-22.949,-35.645,-35.156,-36.133,0
1594927352.149,-16.113,-32.715,-32.227,-35.156,0
1594927352.153,-18.555,-40.527,-31.738,-31.250,0
1594927352.157,-21.484,-41.992,-28.320,-31.250,0
1594927352.161,-22.949,-33.203,-30.273,-36.621,0
1594927352.165,-33.203,-31.738,-34.180,-42.480,0
1594927352.169,-37.109,-39.062,-35.645,-62.988,0
1594927352.173,-36.621,-40.039,-34.668,-57.617,0
1594927352.176,-41.992,-42.480,-33.691,-41.992,0
1594927352.180,-49.805,-46.387,-36.621,-44.434,0
1594927352.184,-48.340,-42.969,-39.551,-46.875,0
1594927352.188,-36.133,-42.480,-39.551,-48.340,0
1594927352.192,-28.320,-34.668,-34.668,-37.109,0
1594927352.188,-33.691,-32.715,-32.227,-34.668,0
1594927352.192,-34.668,-44.434,-31.250,-41.504,0
1594927352.196,-33.691,-44.434,-25.879,-32.715,0
1594927352.200,-36.133,-42.969,-23.438,-30.762,0
1594927352.204,-36.133,-46.387,-24.902,-39.062,0
1594927352.208,-42.480,-48.828,-31.738,-41.016,0
1594927352.212,-44.922,-46.875,-41.992,-46.387,0
1594927352.215,-39.062,-48.340,-32.715,-50.293,0
1594927352.219,-42.969,-51.270,-29.297,-51.270,0
1594927352.223,-48.340,-48.340,-30.762,-56.152,0
1594927352.227,-40.039,-45.410,-25.391,-59.570,0
1594927352.231,-29.785,-44.922,-29.785,-45.898,0
1594927352.243,-31.738,-46.875,-34.180,-41.992,0
1594927352.247,-41.504,-49.805,-33.691,-43.457,0
1594927352.251,-38.086,-45.898,-33.691,-39.551,0
1594927352.255,-31.738,-40.039,-35.156,-42.969,0
1594927352.259,-31.738,-37.598,-39.551,-41.992,0
1594927352.263,-32.715,-41.016,-41.504,-40.039,0
1594927352.267,-28.320,-39.062,-37.109,-36.621,0
1594927352.270,-20.996,-35.156,-33.203,-37.598,0
1594927352.274,-16.113,-34.668,-30.273,-33.691,0
1594927352.278,-17.090,-31.738,-30.762,-35.156,0
1594927352.282,-25.391,-30.273,-35.156,-45.898,0
1594927352.286,-28.320,-28.320,-36.621,-49.805,0
1594927352.281,-16.113,-24.902,-30.762,-52.734,0
1594927352.285,-2.930,-29.785,-32.715,-49.316,0
1594927352.289,-9.766,-32.715,-44.434,-51.270,0
1594927352.293,-17.090,-34.668,-41.504,-50.293,0
1594927352.297,-29.297,-35.156,-34.180,-44.922,0
1594927352.301,-38.574,-20.996,-35.156,-33.203,0
1594927352.305,-39.551,-16.113,-32.715,-25.879,0
1594927352.308,-43.457,-20.996,-28.809,-25.391,0
1594927352.312,-40.527,-23.438,-27.832,-15.625,0
1594927352.316,-42.969,-28.320,-32.715,-17.578,0
1594927352.320,-47.363,-21.973,-27.344,-23.438,0
1594927352.324,-31.738,-20.508,-30.273,-25.391,0
1594927352.337,-27.832,-27.344,-37.109,-28.320,0
1594927352.341,-27.344,-17.090,-35.645,-30.273,0
1594927352.345,-27.344,-17.578,-35.156,-30.273,0
1594927352.349,-26.367,-35.645,-37.109,-31.738,0
1594927352.353,-21.973,-36.621,-38.086,-31.738,0
1594927352.357,-30.762,-31.250,-34.668,-38.574,0
1594927352.361,-41.504,-31.738,-33.691,-40.039,0
1594927352.364,-39.551,-29.785,-26.855,-33.203,0
1594927352.368,-42.480,-30.273,-23.926,-43.945,0
1594927352.372,-42.969,-31.250,-26.855,-50.293,0
1594927352.376,-42.480,-31.250,-29.297,-43.945,0
1594927352.380,-42.969,-36.133,-32.715,-39.551,0
1594927352.374,-41.992,-34.180,-30.762,-42.480,0
1594927352.378,-44.922,-31.738,-30.762,-45.898,0
1594927352.382,-43.457,-33.203,-34.180,-56.641,0
1594927352.386,-36.621,-28.320,-33.203,-64.941,0
1594927352.390,-28.809,-26.367,-28.320,-45.898,0
1594927352.394,-37.598,-27.344,-30.762,-37.598,0
1594927352.398,-45.410,-29.785,-29.297,-38.574,0
1594927352.401,-32.227,-32.227,-19.043,-33.203,0
1594927352.405,-25.391,-27.832,-18.066,-32.227,0
1594927352.409,-27.832,-26.367,-24.414,-38.574,0
1594927352.413,-28.320,-30.762,-24.902,-43.945,0
1594927352.417,-25.391,-34.180,-25.391,-32.227,0
1594927352.431,-25.391,-39.062,-32.715,-33.203,0
1594927352.435,-16.113,-25.879,-36.133,-34.668,0
1594927352.439,-15.625,-22.461,-36.133,-35.156,0
1594927352.443,-18.555,-31.250,-31.738,-36.621,0
1594927352.447,-10.254,-26.367,-27.344,-20.020,0
1594927352.451,-19.043,-25.879,-30.762,-17.090,0
1594927352.455,-20.508,-29.785,-33.691,-27.344,0
1594927352.458,-11.719,-27.832,-25.879,-30.273,0
1594927352.462,-11.230,-26.855,-19.531,-30.273,0
1594927352.466,-14.160,-26.367,-17.090,-31.738,0
1594927352.470,-15.137,-26.855,-17.090,-35.645,0
1594927352.474,-18.066,-19.531,-20.508,-38.086,0
1594927352.468,-27.344,-23.438,-20.020,-41.016,0
1594927352.472,-25.391,-33.691,-24.902,-35.156,0
1594927352.476,-22.461,-34.180,-27.832,-30.762,2
1594927352.480,-25.879,-32.715,-28.809,-44.922,0
1594927352.484,-19.043,-36.621,-30.273,-47.363,0
1594927352.488,-19.043,-41.016,-28.809,-37.109,0
1594927352.492,-17.578,-31.250,-25.879,-32.715,0
1594927352.495,-16.113,-25.879,-23.438,-26.855,0
1594927352.499,-16.113,-42.969,-22.949,-24.414,0
1594927352.503,-16.602,-44.434,-32.227,-32.715,0
1594927352.507,-21.484,-36.621,-32.227,-40.039,0
1594927352.511,-19.531,-38.574,-38.086,-37.598,0
1594927352.524,-16.602,-42.480,-39.551,-30.273,0
1594927352.528,-15.625,-41.016,-32.715,-26.855,0
1594927352.532,-28.320,-42.480,-30.273,-29.297,0
1594927352.536,-35.645,-42.969,-28.809,-36.133,0
1594927352.540,-32.715,-41.016,-26.367,-36.621,0
1594927352.544,-26.855,-39.551,-26.855,-35.156,0
1594927352.548,-24.902,-41.504,-30.273,-36.621,0
1594927352.551,-32.227,-39.062,-24.902,-41.504,0
1594927352.555,-25.879,-32.715,-21.484,-35.156,0
1594927352.559,-23.438,-35.156,-23.438,-30.762,0
1594927352.563,-24.902,-39.062,-31.738,-32.715,0
1594927352.567,-21.973,-32.227,-34.668,-34.668,0
1594927352.562,-29.297,-32.715,-31.738,-31.738,0
1594927352.566,-30.762,-35.645,-33.203,-30.273,0
1594927352.570,-29.297,-29.785,-32.715,-33.203,0
1594927352.574,-28.809,-25.879,-31.738,-26.367,0
1594927352.578,-31.738,-25.391,-27.832,-22.949,0
1594927352.582,-34.180,-29.297,-24.902,-25.879,0
1594927352.586,-28.809,-32.227,-26.367,-26.855,0
1594927352.589,-28.809,-32.227,-28.809,-24.902,0
1594927352.593,-28.320,-29.785,-26.855,-25.391,0
1594927352.597,-24.902,-28.320,-23.926,-22.461,0
1594927352.601,-30.273,-24.414,-17.578,-24.902,0
1594927352.605,-34.668,-28.809,-18.066,-29.785,0
1594927352.618,-28.320,-34.668,-24.414,-30.273,0
1594927352.622,-24.902,-32.715,-27.832,-28.809,0
1594927352.626,-23.438,-29.297,-24.902,-23.926,0
1594927352.630,-29.297,-29.785,-22.461,-27.832,0
1594927352.634,-30.762,-30.273,-24.902,-36.133,0
1594927352.638,-33.203,-34.180,-24.414,-39.551,0
1594927352.642,-35.645,-36.621,-20.020,-37.109,0
1594927352.645,-28.320,-33.203,-18.555,-34.180,0
1594927352.649,-20.996,-30.273,-23.438,-35.156,0
1594927352.653,-26.367,-28.320,-21.973,-34.180,0
1594927352.657,-28.809,-30.762,-15.137,-32.715,0
1594927352.661,-31.250,-28.320,-20.508,-35.156,0
1594927352.657,-38.086,-29.297,-23.438,-38.086,0
1594927352.661,-37.598,-36.133,-22.949,-40.039,0
1594927352.665,-41.504,-41.016,-22.949,-41.016,0
1594927352.669,-40.039,-34.180,-26.855,-53.223,0
1594927352.673,-37.598,-34.668,-27.832,-56.152,0
1594927352.677,-35.156,-40.039,-25.879,-41.016,0
1594927352.681,-31.250,-36.133,-29.297,-41.992,0
1594927352.684,-35.645,-35.156,-36.621,-50.293,0
1594927352.688,-38.574,-44.922,-35.645,-44.434,0
1594927352.692,-34.668,-44.922,-32.715,-38.574,0
1594927352.696,-33.691,-38.086,-27.344,-38.574,0
1594927352.700,-31.738,-35.156,-23.926,-29.297,0
1594927352.712,-27.344,-34.180,-22.461,-27.832,0
1594927352.716,-21.973,-35.645,-22.461,-29.297,0
1594927352.720,-24.902,-41.504,-26.855,-28.809,0
1594927352.724,-27.344,-41.504,-23.926,-38.086,0
1594927352.728,-29.297,-39.062,-26.367,-37.598,0
1594927352.732,-26.367,-41.504,-34.180,-33.691,0
1594927352.736,-21.973,-34.668,-35.156,-36.133,0
1594927352.739,-30.762,-28.809,-31.738,-39.551,0
1594927352.743,-39.062,-29.297,-29.297,-46.875,0
1594927352.747,-37.598,-33.203,-32.227,-42.969,0
1594927352.751,-33.691,-33.203,-35.645,-37.598,0
1594927352.755,-34.668,-30.762,-37.109,-36.133,0
1594927352.749,-36.621,-33.691,-33.691,-40.039,0
1594927352.753,-29.297,-34.668,-21.973,-40.039,0
1594927352.757,-27.832,-46.387,-24.902,-40.039,0
1594927352.761,-28.320,-57.617,-26.855,-41.016,0
1594927352.765,-24.902,-39.551,-25.391,-38.086,0
1594927352.769,-27.344,-24.414,-29.297,-41.992,0
1594927352.773,-25.391,-37.598,-24.414,-38.574,0
1594927352.776,-32.227,-41.504,-21.484,-42.480,0
1594927352.780,-31.738,-44.922,-28.320,-45.410,0
1594927352.784,-28.320,-46.387,-28.320,-31.738,0
1594927352.788,-28.809,-40.039,-22.949,-33.203,0
1594927352.792,-30.273,-38.574,-22.949,-34.180,0
1594927352.806,-30.762,-41.992,-23.438,-38.086,0
1594927352.810,-30.762,-44.434,-24.902,-41.504,0
1594927352.814,-34.180,-42.480,-32.227,-35.645,0
1594927352.818,-33.203,-44.434,-30.273,-32.227,0
1594927352.822,-30.762,-42.480,-27.832,-39.062,0
1594927352.826,-37.109,-41.016,-32.227,-38.086,0
1594927352.830,-36.621,-46.387,-32.715,-32.227,0
1594927352.833,-32.227,-44.922,-28.809,-38.574,0
1594927352.837,-42.969,-46.387,-30.762,-46.875,0
1594927352.841,-47.852,-51.270,-28.809,-41.016,0
1594927352.845,-41.016,-49.805,-33.203,-37.109,0
1594927352.849,-42.480,-52.734,-37.109,-41.016,0
1594927352.843,-42.969,-49.805,-27.832,-41.504,0
1594927352.847,-32.227,-40.039,-25.879,-39.062,0
1594927352.851,-20.020,-38.574,-25.879,-31.738,0
1594927352.855,-21.484,-46.387,-26.367,-30.762,0
1594927352.859,-24.902,-42.969,-34.668,-38.086,0
1594927352.863,-14.648,-35.645,-40.527,-36.621,0
1594927352.867,-18.555,-36.133,-41.992,-41.504,0
1594927352.870,-27.344,-31.738,-36.621,-42.969,0
1594927352.874,-15.625,-25.879,-35.156,-33.203,0
1594927352.878,-15.625,-29.785,-40.039,-28.320,0
1594927352.882,-30.273,-37.598,-32.227,-35.156,0
1594927352.886,-28.320,-42.969,-33.691,-36.621,0
1594927352.899,-22.461,-40.039,-36.133,-34.180,0
1594927352.903,-20.020,-37.598,-32.227,-38.086,0
1594927352.907,-27.832,-33.203,-32.227,-41.016,0
1594927352.911,-33.691,-32.227,-32.715,-44.434,0
1594927352.915,-30.762,-33.691,-27.832,-42.969,0
1594927352.919,-26.855,-36.621,-32.227,-44.922,0
1594927352.923,-26.367,-40.527,-45.410,-46.875,0
1594927352.926,-32.227,-38.086,-34.668,-45.898,0
1594927352.930,-34.668,-37.109,-24.414,-47.852,0
1594927352.934,-30.762,-39.551,-24.414,-45.898,0
1594927352.938,-24.414,-39.551,-26.367,-42.969,0
1594927352.942,-33.691,-36.133,-29.785,-43.945,0
1594927352.938,-42.480,-35.156,-27.832,-50.781,0
1594927352.942,-29.297,-33.691,-29.297,-44.434,0
1594927352.946,-26.367,-32.715,-28.809,-37.109,0
1594927352.950,-36.621,-30.273,-33.691,-37.598,0
1594927352.954,-31.738,-28.809,-29.297,-35.645,0
1594927352.958,-30.762,-30.762,-23.438,-43.945,0
1594927352.962,-31.738,-33.203,-23.926,-32.715,0
1594927352.965,-29.297,-37.109,-21.484,-37.598,0
1594927352.969,-22.461,-37.598,-29.785,-46.875,0
1594927352.973,-19.043,-33.691,-36.133,-31.738,0
1594927352.977,-19.531,-30.273,-23.926,-31.738,0
1594927352.981,-18.555,-35.156,-21.484,-37.109,0
1594927352.993,-24.902,-39.551,-25.391,-33.203,0
1594927352.997,-29.785,-40.039,-26.367,-30.273,0
1594927353.001,-35.156,-35.156,-25.879,-31.250,0
1594927353.005,-39.062,-34.668,-30.762,-29.785,0
1594927353.009,-38.086,-36.621,-31.250,-25.879,0
1594927353.013,-32.227,-34.180,-25.879,-28.320,0
1594927353.017,-28.809,-35.645,-13.672,-37.109,0
1594927353.020,-29.785,-24.414,-13.672,-35.645,0
1594927353.024,-33.691,-8.789,-17.090,-39.062,0
1594927353.028,-28.320,-7.812,-16.602,-44.434,0
1594927353.032,-20.508,-7.324,-17.090,-37.109,0
1594927353.036,-18.555,-6.348,-16.113,-34.668,0
1594927353.031,-31.738,-20.508,-25.391,-47.852,0
1594927353.035,-40.039,-26.367,-31.250,-62.988,0
1594927353.039,-35.156,-29.785,-25.391,-62.988,0
1594927353.043,-40.039,-34.180,-25.391,-57.617,0
1594927353.047,-37.598,-24.414,-28.320,-53.223,0
1594927353.051,-30.762,-25.879,-31.738,-50.293,0
1594927353.055,-33.691,-30.762,-35.156,-50.781,0
1594927353.058,-29.785,-26.855,-31.250,-46.875,0
1594927353.062,-20.996,-25.391,-27.344,-46.387,0
1594927353.066,-17.090,-26.855,-26.855,-44.434,0
1594927353.070,-15.625,-20.508,-18.066,-44.434,0
1594927353.074,-14.648,-17.090,-20.996,-47.852,0
1594927353.087,-13.184,-25.391,-21.973,-49.316,0
1594927353.091,-13.184,-35.645,-19.531,-43.457,0
1594927353.095,-21.484,-31.738,-27.344,-46.387,0
1594927353.099,-35.156,-29.297,-21.973,-39.062,0
1594927353.103,-31.738,-31.250,-20.020,-30.762,0
1594927353.107,-31.250,-30.762,-23.438,-31.250,0
1594927353.111,-41.992,-33.691,-28.320,-32.715,0
1594927353.114,-43.945,-30.273,-30.762,-36.133,0
1594927353.118,-40.039,-31.250,-33.691,-39.551,0
1594927353.122,-45.410,-36.621,-38.086,-34.180,0
1594927353.126,-44.922,-37.109,-32.715,-41.504,0
1594927353.130,-43.457,-41.016,-29.785,-63.477,0
1594927353.129,-42.480,-35.645,-30.762,-62.500,0
1594927353.133,-37.598,-31.738,-30.273,-49.316,0
1594927353.137,-33.691,-32.227,-30.273,-44.434,0
1594927353.141,-30.273,-33.203,-30.762,-46.387,0
1594927353.145,-36.133,-33.203,-28.809,-43.945,0
1594927353.149,-38.574,-33.203,-29.785,-36.133,0
1594927353.153,-26.855,-31.250,-29.785,-22.949,0
1594927353.156,-20.996,-27.344,-27.344,-32.715,0
1594927353.160,-19.531,-31.738,-30.273,-35.156,0
1594927353.164,-24.414,-33.691,-30.762,-29.785,0
1594927353.168,-27.344,-33.691,-21.973,-34.668,0
1594927353.172,-27.832,-27.344,-14.648,-37.109,0
1594927353.182,-23.926,-23.926,-14.160,-38.574,0
1594927353.186,-21.973,-27.344,-19.531,-36.621,0
1594927353.190,-33.203,-30.273,-24.902,-41.992,0
1594927353.194,-36.133,-35.156,-29.785,-47.363,0
1594927353.198,-34.668,-37.598,-31.250,-44.434,0
1594927353.202,-31.738,-36.621,-31.250,-41.016,0
1594927353.206,-31.738,-37.109,-34.668,-38.086,0
1594927353.209,-42.480,-36.621,-37.598,-37.109,0
1594927353.213,-41.992,-30.762,-33.203,-39.551,0
1594927353.217,-34.180,-31.738,-32.227,-36.133,0
1594927353.221,-27.344,-32.227,-31.738,-30.273,0
1594927353.225,-33.203,-28.320,-30.273,-34.180,0
1594927353.218,-35.645,-29.297,-28.809,-37.598,0
1594927353.222,-31.250,-32.715,-22.949,-36.133,0
1594927353.226,-33.691,-35.156,-18.555,-34.668,0
1594927353.230,-36.621,-39.551,-20.996,-35.156,0
1594927353.234,-40.039,-40.527,-26.367,-36.133,0
1594927353.238,-35.156,-38.086,-25.879,-35.645,0
1594927353.242,-31.250,-36.621,-20.020,-34.180,1
1594927353.245,-34.180,-38.086,-22.461,-31.738,0
1594927353.249,-31.738,-45.410,-26.855,-50.781,0
1594927353.253,-26.367,-41.504,-20.508,-41.016,0
1594927353.257,-32.227,-33.691,-16.602,-31.738,0
1594927353.261,-31.250,-34.668,-21.973,-40.527,0
1594927353.274,-30.762,-35.645,-15.137,-33.691,0
1594927353.278,-25.879,-35.156,-15.625,-29.785,0
1594927353.282,-22.949,-31.250,-19.043,-32.227,0
1594927353.286,-24.414,-27.344,-13.184,-32.227,0
1594927353.290,-16.113,-25.879,-17.090,-25.879,0
1594927353.294,-12.207,-27.832,-21.484,-29.785,0
1594927353.298,-17.090,-31.738,-23.438,-32.227,0
1594927353.301,-18.066,-26.367,-28.320,-34.180,0
1594927353.305,-15.137,-26.855,-25.879,-40.527,0
1594927353.309,-16.602,-34.180,-23.926,-34.668,0
1594927353.313,-24.414,-36.133,-30.762,-38.574,0
1594927353.317,-27.344,-32.715,-27.832,-40.527,0
1594927353.315,-23.438,-30.762,-20.508,-37.598,0
1594927353.319,-29.785,-30.273,-22.949,-40.039,0
1594927353.323,-42.480,-32.715,-23.438,-43.945,0
1594927353.327,-31.738,-34.668,-19.043,-38.574,0
1594927353.331,-28.320,-31.250,-18.066,-40.527,0
1594927353.335,-29.785,-27.344,-17.578,-41.504,0
1594927353.339,-25.879,-30.762,-23.438,-44.922,0
1594927353.342,-29.785,-35.156,-31.250,-51.270,0
1594927353.346,-35.156,-33.691,-31.738,-39.062,0
1594927353.350,-38.086,-33.691,-32.715,-34.668,0
1594927353.354,-27.344,-30.762,-40.527,-39.062,0
1594927353.358,-24.414,-29.785,-36.621,-42.480,0
1594927353.368,-31.250,-29.297,-32.227,-39.062,0
1594927353.372,-32.715,-23.926,-36.133,-31.250,0
1594927353.376,-40.527,-22.949,-38.086,-37.109,0
1594927353.380,-37.598,-26.367,-32.715,-37.598,0
1594927353.384,-33.691,-27.832,-29.785,-31.738,0
1594927353.388,-38.574,-25.391,-34.668,-39.062,0
1594927353.392,-41.992,-28.320,-38.086,-43.457,0
1594927353.395,-39.551,-27.832,-31.250,-34.668,0
1594927353.399,-35.645,-20.996,-21.973,-37.598,0
1594927353.403,-27.832,-18.066,-22.461,-41.992,0
1594927353.407,-26.855,-25.879,-25.391,-38.086,0
1594927353.411,-34.180,-23.926,-28.320,-33.691,0
1594927353.407,-30.273,-13.672,-26.855,-25.879,0
1594927353.411,-32.715,-14.648,-22.461,-22.461,0
1594927353.415,-32.227,-20.508,-26.367,-24.414,0
1594927353.419,-24.902,-24.414,-33.203,-25.391,0
1594927353.423,-23.926,-24.902,-26.855,-31.250,0
1594927353.427,-18.555,-18.555,-24.414,-31.738,0
1594927353.431,-25.391,-24.902,-32.227,-33.691,0
1594927353.434,-31.250,-26.367,-32.227,-30.273,0
1594927353.438,-30.273,-26.855,-32.227,-26.855,0
1594927353.442,-40.039,-31.250,-35.156,-34.668,0
1594927353.446,-32.715,-31.738,-32.715,-35.645,0
1594927353.450,-28.809,-32.715,-37.109,-35.645,0
1594927353.462,-34.668,-30.273,-39.551,-41.504,0
1594927353.466,-33.203,-27.832,-37.109,-38.086,0
1594927353.470,-27.344,-27.344,-31.738,-41.504,0
1594927353.474,-32.227,-36.133,-30.273,-47.363,0
1594927353.478,-40.039,-40.039,-35.645,-49.805,0
1594927353.482,-35.645,-37.598,-36.133,-50.293,0
1594927353.486,-32.715,-41.504,-36.621,-42.969,0
1594927353.489,-30.762,-36.621,-32.227,-30.762,0
1594927353.493,-28.809,-30.762,-26.855,-33.203,0
1594927353.497,-39.062,-38.574,-27.832,-36.133,0
1594927353.501,-40.527,-40.527,-32.715,-29.297,0
1594927353.505,-33.203,-39.551,-36.133,-31.738,0
1594927353.499,-35.645,-36.621,-35.645,-35.156,0
1594927353.503,-37.598,-30.762,-33.203,-39.062,0
1594927353.507,-38.086,-34.180,-30.762,-43.457,0
1594927353.511,-34.180,-34.668,-29.297,-42.480,0
1594927353.515,-34.180,-36.621,-36.133,-45.410,0
1594927353.519,-39.551,-41.504,-40.527,-48.828,0
1594927353.523,-37.109,-41.992,-39.062,-45.898,0
1594927353.526,-41.016,-41.504,-38.086,-46.387,0
1594927353.530,-34.668,-47.852,-38.574,-44.922,0
1594927353.534,-31.250,-49.316,-38.086,-41.504,0
1594927353.538,-34.668,-46.875,-26.367,-52.734,0
1594927353.542,-37.109,-46.387,-27.832,-59.082,0
1594927353.556,-43.457,-41.992,-36.621,-51.270,0
1594927353.560,-38.086,-43.457,-32.227,-42.480,0
1594927353.564,-22.461,-46.387,-27.832,-37.598,0
1594927353.568,-34.180,-43.945,-28.809,-51.758,0
1594927353.572,-45.898,-42.480,-29.785,-52.246,0
1594927353.576,-39.551,-42.969,-28.809,-42.480,0
1594927353.580,-42.969,-45.410,-27.832,-39.062,0
1594927353.583,-38.574,-48.340,-23.438,-40.039,0
1594927353.587,-28.320,-50.293,-28.320,-44.922,0
1594927353.591,-26.367,-49.805,-30.762,-46.875,0
1594927353.595,-24.902,-53.223,-27.832,-57.617,0
1594927353.599,-26.855,-48.828,-29.785,-51.758,0
1594927353.593,-27.832,-42.969,-31.738,-43.457,0
1594927353.597,-26.367,-44.434,-33.691,-48.340,0
1594927353.601,-25.879,-44.922,-30.273,-48.828,0
1594927353.605,-27.832,-44.434,-30.273,-41.016,0
1594927353.609,-32.715,-39.551,-26.855,-42.969,0
1594927353.613,-27.344,-33.203,-25.391,-41.992,0
1594927353.617,-24.414,-31.738,-29.297,-40.527,0
1594927353.620,-32.715,-31.738,-28.320,-50.293,0
1594927353.624,-25.879,-36.133,-31.250,-44.434,0
1594927353.628,-24.902,-41.016,-32.227,-40.039,0
1594927353.632,-37.109,-40.039,-29.297,-47.852,0
1594927353.636,-43.457,-46.387,-48.340,-56.152,0
1594927353.649,-42.480,-46.875,-57.617,-60.059,0
1594927353.653,-37.598,-42.480,-45.410,-48.340,0
1594927353.657,-31.738,-41.016,-40.527,-38.574,0
1594927353.661,-38.574,-40.039,-33.691,-47.852,0
1594927353.665,-40.527,-36.133,-29.297,-49.316,0
1594927353.669,-34.180,-37.109,-30.762,-45.410,0
1594927353.673,-41.016,-41.504,-32.227,-47.852,0
1594927353.676,-36.133,-36.621,-26.855,-52.246,0
1594927353.680,-24.414,-32.715,-26.367,-57.617,0
1594927353.684,-27.344,-37.109,-27.832,-39.551,0
1594927353.688,-21.484,-36.133,-25.879,-25.391,0
1594927353.692,-20.508,-37.598,-26.367,-25.879,0
1594927353.687,-28.809,-46.387,-22.949,-29.785,0
1594927353.691,-27.832,-49.805,-21.973,-28.809,0
1594927353.695,-20.996,-48.340,-23.926,-22.461,0
1594927353.699,-29.785,-44.922,-26.367,-19.531,0
1594927353.703,-33.203,-40.039,-22.949,-20.996,0
1594927353.707,-27.344,-41.504,-22.461,-17.090,0
1594927353.711,-25.391,-43.945,-21.484,-9.277,0
1594927353.714,-26.367,-41.016,-12.207,-11.719,0
1594927353.718,-30.273,-45.410,-17.578,-17.090,0
1594927353.722,-27.832,-45.898,-20.508,-22.949,0
1594927353.726,-17.090,-41.016,-19.531,-22.461,0
1594927353.730,-17.090,-36.621,-20.020,-16.113,0
1594927353.743,-34.180,-33.691,-19.043,-18.066,0
1594927353.747,-38.086,-33.691,-18.555,-24.902,0
1594927353.751,-34.668,-28.320,-20.996,-23.926,0
1594927353.755,-38.086,-32.715,-26.367,-29.785,0
1594927353.759,-35.645,-43.945,-25.391,-29.785,0
1594927353.763,-42.969,-46.387,-30.273,-36.133,0
1594927353.767,-46.875,-45.898,-37.598,-38.086,0
1594927353.770,-41.016,-42.480,-36.133,-33.203,0
1594927353.774,-42.969,-39.551,-36.133,-42.969,0
1594927353.778,-38.086,-41.016,-37.598,-40.527,0
1594927353.782,-38.086,-49.316,-36.621,-38.086,0
1594927353.786,-42.480,-46.875,-36.133,-40.527,0
1594927353.781,-40.527,-39.551,-31.738,-41.504,0
1594927353.785,-39.062,-34.668,-30.273,-37.598,0
1594927353.789,-39.062,-35.156,-28.320,-41.504,0
1594927353.793,-40.527,-36.621,-27.832,-48.340,0
1594927353.797,-33.691,-35.645,-29.297,-43.457,0
1594927353.801,-28.320,-38.086,-30.762,-41.016,0
1594927353.805,-32.227,-32.227,-28.809,-37.109,0
1594927353.808,-30.273,-32.715,-28.320,-39.062,0
1594927353.812,-30.273,-34.668,-34.668,-41.016,0
1594927353.816,-27.344,-33.691,-37.109,-34.180,0
1594927353.820,-25.879,-34.180,-30.273,-36.621,0
1594927353.824,-24.902,-36.621,-26.855,-35.645,0
1594927353.837,-29.297,-40.527,-34.180,-45.410,0
1594927353.841,-23.926,-36.621,-35.156,-48.828,0
1594927353.845,-18.066,-29.297,-28.809,-42.969,0
1594927353.849,-13.184,-28.809,-24.902,-46.875,0
1594927353.853,-20.020,-33.203,-27.832,-40.039,0
1594927353.857,-26.855,-35.156,-30.273,-29.297,0
1594927353.861,-28.809,-38.574,-34.668,-27.344,0
1594927353.864,-36.621,-38.574,-29.785,-25.879,0
1594927353.868,-30.273,-35.645,-21.973,-24.902,0
1594927353.872,-37.109,-38.086,-26.367,-29.785,0
1594927353.876,-39.062,-39.062,-27.832,-26.367,0
1594927353.880,-28.320,-39.551,-28.320,-23.926,0
1594927353.876,-28.809,-36.133,-30.273,-29.785,0
1594927353.880,-34.180,-33.203,-24.414,-28.320,0
1594927353.884,-34.180,-36.621,-20.508,-26.367,0
1594927353.888,-29.297,-38.086,-17.578,-28.809,0
1594927353.892,-34.180,-44.434,-16.602,-34.668,0
1594927353.896,-35.645,-52.246,-22.949,-34.180,0
1594927353.900,-34.180,-36.621,-26.855,-37.109,0
1594927353.903,-35.645,-33.691,-26.367,-36.621,0
1594927353.907,-31.250,-38.086,-30.762,-19.531,0
1594927353.911,-29.297,-34.180,-28.809,-25.879,0
1594927353.915,-33.691,-33.203,-21.484,-44.434,0
1594927353.919,-31.250,-31.250,-22.461,-37.598,0
1594927353.932,-28.809,-28.809,-26.367,-35.645,0
1594927353.936,-28.809,-30.762,-28.320,-36.621,0
1594927353.940,-24.902,-29.785,-27.832,-30.273,0
1594927353.944,-28.809,-29.785,-24.902,-30.762,0
1594927353.948,-31.250,-34.668,-23.926,-34.180,0
1594927353.952,-34.668,-37.598,-23.438,-35.645,0
1594927353.956,-31.738,-40.527,-21.484,-23.926,0
1594927353.959,-33.203,-30.273,-18.066,-20.996,0
1594927353.963,-41.992,-29.785,-15.137,-31.250,0
1594927353.967,-39.062,-36.621,-20.508,-36.133,0
1594927353.971,-45.410,-33.691,-30.762,-46.875,0
1594927353.975,-50.781,-33.691,-31.738,-43.945,0
1594927353.968,-48.828,-30.273,-29.297,-43.457,0
1594927353.972,-51.758,-29.297,-29.297,-43.457,0
1594927353.976,-48.340,-36.133,-27.344,-43.457,0
1594927353.980,-41.016,-37.598,-27.832,-47.852,0
1594927353.984,-38.574,-30.762,-32.715,-41.016,0
1594927353.988,-38.086,-30.273,-29.785,-39.062,0
1594927353.992,-39.551,-36.621,-22.949,-41.016,0
1594927353.995,-38.574,-34.180,-28.320,-40.527,0
1594927353.999,-35.156,-35.645,-31.250,-39.551,0
1594927354.003,-37.109,-40.527,-24.414,-33.691,0
1594927354.007,-40.527,-31.250,-19.531,-35.156,0
1594927354.011,-42.480,-29.785,-25.391,-34.668,0
1594927354.024,-41.016,-34.180,-30.273,-36.621,0
1594927354.028,-42.969,-30.762,-29.297,-44.434,0
1594927354.032,-38.574,-32.715,-25.879,-44.922,0
1594927354.036,-31.250,-35.645,-23.926,-44.922,0
1594927354.040,-39.062,-39.062,-26.855,-42.480,0
1594927354.044,-45.898,-41.992,-33.203,-39.551,0
1594927354.048,-42.969,-41.992,-34.668,-45.410,0
1594927354.051,-38.574,-41.504,-28.809,-47.852,0
1594927354.055,-37.109,-31.738,-32.227,-46.875,0
1594927354.059,-42.480,-31.738,-34.668,-53.711,0
1594927354.063,-42.969,-33.203,-27.344,-47.363,0
1594927354.067,-40.039,-31.738,-24.902,-33.203,0
1594927354.062,-45.410,-38.086,-24.902,-50.781,0
1594927354.066,-42.480,-42.480,-24.414,-51.270,0
1594927354.070,-46.875,-35.645,-26.855,-40.527,0
1594927354.074,-47.363,-30.762,-28.320,-46.875,0
1594927354.078,-35.645,-31.250,-29.297,-48.828,0
1594927354.082,-31.250,-29.785,-31.250,-40.527,0
1594927354.086,-35.645,-27.344,-28.320,-32.715,0
1594927354.089,-32.715,-27.344,-22.461,-35.645,0
1594927354.093,-26.367,-29.297,-22.949,-37.109,0
1594927354.097,-27.832,-26.855,-25.391,-31.250,0
1594927354.101,-25.879,-29.785,-21.484,-32.715,0
1594927354.105,-19.531,-33.691,-17.578,-33.691,0
1594927354.118,-20.508,-22.461,-17.090,-36.621,0
1594927354.122,-20.996,-22.949,-17.090,-32.715,0
1594927354.126,-22.461,-21.484,-18.066,-29.785,2
1594927354.130,-34.668,-15.137,-13.672,-35.156,0
1594927354.134,-37.598,-20.020,-19.043,-35.645,0
1594927354.138,-42.480,-24.902,-23.926,-34.668,0
1594927354.142,-44.922,-21.973,-27.344,-37.598,0
1594927354.145,-35.156,-22.461,-25.391,-37.109,0
1594927354.149,-32.227,-22.949,-19.531,-42.969,0
1594927354.153,-36.133,-23.926,-27.344,-45.410,0
1594927354.157,-36.133,-26.855,-35.645,-42.480,0
1594927354.161,-34.668,-22.949,-26.367,-45.410,0
1594927354.157,-39.062,-25.879,-21.973,-51.758,0
1594927354.161,-44.922,-34.668,-27.344,-57.129,0
1594927354.165,-34.668,-31.738,-25.391,-55.664,0
1594927354.169,-30.273,-24.902,-24.902,-57.129,0
1594927354.173,-33.691,-23.926,-23.926,-46.387,0
1594927354.177,-31.738,-27.832,-23.438,-47.363,0
1594927354.181,-30.762,-28.809,-24.414,-58.594,0
1594927354.184,-34.180,-31.250,-18.066,-54.199,0
1594927354.188,-30.762,-31.738,-18.555,-45.410,0
1594927354.192,-28.320,-29.785,-23.926,-40.527,0
1594927354.196,-29.297,-27.832,-19.531,-41.992,0
1594927354.200,-17.578,-23.926,-17.090,-36.133,0
1594927354.212,-17.090,-21.973,-23.926,-45.898,0
1594927354.216,-21.973,-26.367,-23.926,-46.875,0
1594927354.220,-26.367,-24.414,-21.973,-39.062,0
1594927354.224,-30.273,-22.949,-22.949,-43.457,0
1594927354.228,-31.738,-28.320,-27.832,-38.574,0
1594927354.232,-34.180,-33.691,-32.715,-34.180,0
1594927354.236,-37.109,-34.180,-30.762,-35.645,0
1594927354.239,-30.273,-29.785,-24.414,-30.762,0
1594927354.243,-25.879,-23.926,-24.414,-27.344,0
1594927354.247,-26.367,-27.832,-27.344,-30.273,0
1594927354.251,-27.832,-33.691,-24.414,-29.785,0
1594927354.255,-28.809,-31.738,-23.926,-31.738,0
1594927354.249,-25.879,-36.621,-25.391,-31.738,0
1594927354.253,-22.461,-35.645,-21.973,-25.879,0
1594927354.257,-26.855,-28.320,-17.578,-23.926,0
1594927354.261,-24.902,-25.879,-21.973,-21.973,0
1594927354.265,-22.461,-30.273,-26.855,-22.949,0
1594927354.269,-33.203,-32.715,-30.762,-30.273,0
1594927354.273,-34.668,-33.691,-35.156,-34.668,0
1594927354.276,-20.996,-34.668,-32.227,-29.785,0
1594927354.280,-16.113,-28.320,-35.645,-26.367,0
1594927354.284,-25.391,-28.809,-33.203,-26.367,0
1594927354.288,-27.344,-31.738,-18.066,-31.250,0
1594927354.292,-21.973,-34.180,-23.438,-33.203,0
1594927354.306,-24.902,-40.527,-25.879,-29.785,0
1594927354.310,-25.391,-46.387,-25.879,-29.785,0
1594927354.314,-24.414,-43.945,-28.809,-32.227,0
1594927354.318,-32.715,-36.133,-23.926,-38.574,0
1594927354.322,-30.273,-38.574,-21.484,-32.227,0
1594927354.326,-24.902,-43.457,-30.762,-31.250,0
1594927354.330,-23.438,-48.340,-39.062,-38.086,0
1594927354.333,-27.344,-48.340,-33.203,-38.574,0
1594927354.337,-35.156,-40.527,-32.715,-39.551,0
1594927354.341,-34.668,-46.387,-36.133,-43.457,0
1594927354.345,-30.762,-49.805,-31.738,-35.156,0
1594927354.349,-24.414,-33.203,-29.297,-22.949,0
1594927354.343,-29.785,-33.203,-28.809,-30.762,0
1594927354.347,-39.551,-45.898,-35.645,-36.621,0
1594927354.351,-47.852,-51.270,-38.574,-43.457,0
1594927354.355,-52.734,-51.758,-33.691,-46.387,0
1594927354.359,-49.805,-46.875,-28.320,-39.551,0
1594927354.363,-50.781,-41.016,-28.320,-38.574,0
1594927354.367,-50.781,-37.109,-27.344,-41.992,0
1594927354.370,-37.598,-35.156,-26.855,-43.945,0
1594927354.374,-24.414,-36.621,-32.715,-48.340,0
1594927354.378,-34.180,-41.016,-37.109,-50.293,0
1594927354.382,-36.621,-38.086,-30.273,-42.969,0
1594927354.386,-32.715,-40.527,-30.273,-39.062,0
1594927354.400,-36.621,-34.180,-33.203,-41.992,0
1594927354.404,-30.762,-30.762,-36.621,-41.992,0
1594927354.408,-28.809,-31.738,-37.598,-37.598,0
1594927354.412,-34.668,-24.414,-31.250,-42.480,0
1594927354.416,-42.969,-31.738,-29.785,-46.875,0
1594927354.420,-52.734,-38.086,-27.344,-48.828,0
1594927354.424,-41.992,-44.434,-29.297,-44.922,0
1594927354.427,-27.832,-39.062,-15.625,-40.527,0
1594927354.431,-33.203,-29.785,-18.555,-46.875,0
1594927354.435,-28.809,-28.809,-33.691,-50.293,0
1594927354.439,-22.949,-23.926,-36.133,-45.898,0
1594927354.443,-23.926,-23.926,-41.992,-43.945,0
1594927354.437,-29.785,-23.438,-38.086,-46.875,0
1594927354.441,-30.762,-17.578,-31.738,-44.434,0
1594927354.445,-29.785,-20.996,-34.668,-48.340,0
1594927354.449,-37.109,-30.762,-37.598,-53.711,0
1594927354.453,-34.668,-27.344,-33.203,-43.457,0
1594927354.457,-30.762,-23.926,-31.738,-45.410,0
1594927354.461,-31.250,-31.250,-34.668,-43.457,0
1594927354.464,-38.086,-35.156,-33.203,-41.504,0
1594927354.468,-43.457,-35.156,-35.645,-50.781,0
1594927354.472,-36.133,-36.621,-38.574,-47.363,0
1594927354.476,-34.668,-29.297,-28.320,-45.898,0
1594927354.480,-37.598,-25.391,-23.438,-49.316,0
1594927354.493,-33.691,-27.344,-27.344,-51.758,0
1594927354.497,-30.273,-27.832,-25.879,-53.223,0
1594927354.501,-33.691,-28.320,-20.508,-48.828,0
1594927354.505,-38.574,-28.320,-20.508,-55.664,0
1594927354.509,-45.410,-26.855,-31.250,-59.082,0
1594927354.513,-43.457,-26.855,-31.250,-52.246,0
1594927354.517,-26.367,-28.320,-23.926,-43.945,0
1594927354.520,-33.203,-30.273,-23.438,-44.434,0
1594927354.524,-43.457,-31.738,-29.297,-50.781,0
1594927354.528,-38.574,-32.715,-29.297,-43.457,0
1594927354.532,-42.969,-38.574,-27.344,-44.434,0
1594927354.536,-34.668,-39.062,-38.086,-62.500,0
1594927354.531,-38.574,-36.621,-36.621,-66.406,0
1594927354.535,-51.270,-37.598,-34.180,-66.406,0
1594927354.539,-41.016,-26.855,-35.645,-63.965,0
1594927354.543,-40.527,-27.832,-29.785,-54.688,0
1594927354.547,-51.270,-49.805,-29.297,-49.805,0
1594927354.551,-56.152,-52.246,-35.645,-49.805,0
1594927354.555,-48.340,-41.016,-25.391,-47.852,0
1594927354.558,-46.875,-37.598,-34.668,-46.387,0
1594927354.562,-37.109,-33.203,-51.758,-46.387,0
1594927354.566,-30.273,-29.297,-45.898,-46.387,0
1594927354.570,-33.203,-24.902,-41.992,-45.410,0
1594927354.574,-29.297,-27.832,-49.316,-37.109,0
1594927354.587,-26.855,-27.344,-46.387,-33.203,0
1594927354.591,-34.668,-30.273,-44.922,-34.180,0
1594927354.595,-31.250,-33.203,-44.434,-32.715,0
1594927354.599,-19.043,-36.621,-26.367,-40.039,0
1594927354.603,-20.508,-41.504,-21.973,-46.387,0
1594927354.607,-18.066,-37.598,-30.273,-47.363,0
1594927354.611,-16.113,-31.250,-32.715,-49.805,0
1594927354.614,-14.648,-29.297,-27.832,-36.133,0
1594927354.618,-21.973,-35.156,-26.855,-23.926,0
1594927354.622,-39.062,-39.062,-26.855,-26.367,0
1594927354.626,-43.457,-39.062,-31.250,-26.367,0
1594927354.630,-44.434,-39.551,-32.715,-22.461,0
1594927354.626,-44.434,-38.574,-27.832,-22.949,0
1594927354.630,-44.434,-35.156,-30.273,-27.832,0
1594927354.634,-44.922,-34.668,-28.809,-25.879,0
1594927354.638,-39.062,-40.039,-25.391,-21.973,0
1594927354.642,-34.668,-40.527,-24.902,-19.531,0
1594927354.646,-37.109,-36.133,-28.320,-24.414,0
1594927354.650,-40.039,-34.180,-29.297,-31.738,0
1594927354.653,-41.504,-37.109,-30.273,-31.738,0
1594927354.657,-40.527,-40.039,-39.062,-24.902,0
1594927354.661,-34.180,-35.645,-34.668,-21.484,0
1594927354.665,-35.645,-30.273,-31.738,-33.203,0
1594927354.669,-36.621,-28.809,-32.227,-35.156,0
1594927354.681,-33.203,-27.344,-29.785,-36.621,0
1594927354.685,-25.879,-28.320,-35.156,-37.598,0
1594927354.689,-33.691,-25.391,-34.668,-41.992,0
1594927354.693,-39.551,-23.438,-32.227,-36.621,0
1594927354.697,-31.250,-22.949,-25.879,-19.531,0
1594927354.701,-27.832,-33.691,-23.438,-18.555,0
1594927354.705,-25.391,-37.109,-28.320,-22.461,0
1594927354.708,-21.973,-21.484,-31.250,-26.367,0
1594927354.712,-21.484,-22.949,-36.133,-34.180,0
1594927354.716,-24.902,-24.414,-31.250,-38.574,0
1594927354.720,-29.297,-23.438,-29.785,-41.016,0
1594927354.724,-30.273,-28.320,-35.645,-36.133,0
1594927354.718,-33.203,-30.273,-36.133,-37.109,0
1594927354.722,-31.738,-31.738,-27.832,-38.086,0
1594927354.726,-38.086,-35.645,-23.926,-42.480,0
1594927354.730,-42.969,-35.645,-35.645,-54.199,0
1594927354.734,-39.062,-27.832,-42.969,-44.922,0
1594927354.738,-38.574,-30.273,-40.039,-36.133,0
1594927354.742,-37.109,-36.133,-37.598,-37.109,0
1594927354.745,-34.180,-28.809,-33.691,-35.645,0
1594927354.749,-34.668,-26.367,-30.273,-35.645,0
1594927354.753,-38.086,-37.109,-30.762,-30.273,0
1594927354.757,-34.180,-37.109,-26.367,-33.691,0
1594927354.761,-38.574,-36.133,-25.879,-40.039,0
1594927354.774,-44.922,-39.062,-31.250,-40.527,0
1594927354.778,-37.598,-33.691,-30.273,-39.551,0
1594927354.782,-31.738,-30.273,-24.414,-36.621,0
1594927354.786,-35.645,-31.250,-26.855,-37.109,0
1594927354.790,-34.668,-31.738,-32.227,-38.086,0
1594927354.794,-30.762,-31.250,-23.438,-41.504,0
1594927354.798,-31.250,-34.668,-19.043,-35.156,0
1594927354.801,-33.691,-40.527,-21.484,-32.227,0
1594927354.805,-36.621,-32.715,-26.855,-42.480,0
1594927354.809,-37.109,-36.621,-28.809,-44.434,0
1594927354.813,-36.133,-44.922,-27.344,-45.898,0
1594927354.817,-33.203,-40.527,-30.762,-42.480,0
1594927354.812,-36.133,-37.598,-30.273,-42.969,0
1594927354.816,-33.203,-41.016,-34.668,-43.457,0
1594927354.820,-29.785,-43.457,-33.203,-32.715,0
1594927354.824,-26.855,-34.668,-24.902,-31.738,0
1594927354.828,-25.879,-35.645,-19.043,-37.598,0
1594927354.832,-25.879,-50.781,-20.508,-35.645,0
1594927354.836,-24.414,-52.246,-22.461,-31.250,0
1594927354.839,-24.414,-46.875,-26.367,-33.691,0
1594927354.843,-18.555,-52.246,-30.273,-27.344,0
1594927354.847,-19.531,-60.547,-29.785,-23.438,0
1594927354.851,-22.949,-47.852,-26.367,-26.855,0
1594927354.855,-23.926,-44.922,-28.320,-29.297,0
1594927354.868,-15.625,-44.922,-27.832,-32.715,0
1594927354.872,-17.090,-42.969,-28.809,-34.668,0
1594927354.876,-29.297,-37.598,-26.855,-31.738,0
1594927354.880,-28.809,-30.273,-21.973,-38.086,0
1594927354.884,-25.391,-36.621,-28.809,-41.016,0
1594927354.888,-31.250,-49.316,-35.645,-40.039,0
1594927354.892,-31.250,-50.293,-35.645,-49.316,0
1594927354.895,-34.668,-44.922,-32.227,-50.293,0
1594927354.899,-33.203,-41.992,-33.691,-49.316,0
1594927354.903,-25.391,-44.922,-41.016,-47.363,0
1594927354.907,-25.391,-51.758,-44.434,-46.387,0
1594927354.911,-18.066,-49.805,-41.016,-51.270,0
1594927354.906,-20.508,-43.945,-33.691,-43.457,0
1594927354.910,-27.832,-40.527,-34.180,-42.969,0
1594927354.914,-19.043,-37.109,-37.109,-44.922,0
1594927354.918,-26.367,-34.180,-36.621,-38.574,0
1594927354.922,-37.598,-28.320,-36.133,-41.016,0
1594927354.926,-27.344,-20.996,-29.785,-34.180,0
1594927354.930,-21.973,-21.484,-27.832,-28.320,0
1594927354.933,-26.367,-23.438,-29.785,-28.320,0
1594927354.937,-28.320,-22.949,-33.691,-33.691,0
1594927354.941,-34.180,-21.484,-38.086,-33.203,0
1594927354.945,-38.086,-20.996,-29.785,-26.855,0
1594927354.949,-35.156,-27.832,-28.809,-32.715,0
1594927354.962,-28.809,-29.785,-31.250,-31.250,0
1594927354.966,-29.785,-22.949,-29.785,-31.250,0
1594927354.970,-35.156,-25.879,-24.902,-36.133,2
1594927354.974,-35.645,-32.715,-29.297,-35.645,0
1594927354.978,-37.109,-28.320,-34.180,-35.645,0
1594927354.982,-38.574,-24.902,-35.645,-38.574,0
1594927354.986,-39.062,-30.273,-42.969,-38.086,0
1594927354.989,-38.574,-33.691,-42.480,-37.109,0
1594927354.993,-35.156,-26.855,-36.621,-43.945,0
1594927354.997,-36.133,-27.344,-33.691,-44.434,0
1594927355.001,-31.738,-33.691,-32.227,-41.992,0
1594927355.005,-35.156,-33.691,-36.621,-44.922,0
1594927354.999,-41.504,-28.320,-34.668,-47.852,0
1594927355.003,-33.203,-26.367,-33.691,-43.457,0
1594927355.007,-30.273,-23.926,-34.180,-44.434,0
1594927355.011,-34.180,-25.879,-32.227,-41.016,0
1594927355.015,-34.668,-27.832,-38.086,-46.875,0
1594927355.019,-39.551,-29.785,-46.387,-56.152,0
1594927355.023,-29.785,-30.762,-40.039,-42.480,0
1594927355.026,-26.855,-29.785,-36.133,-41.992,0
1594927355.030,-29.785,-25.879,-37.598,-42.969,0
1594927355.034,-20.020,-21.484,-43.457,-32.715,0
1594927355.038,-20.020,-17.578,-37.109,-34.668,0
1594927355.042,-21.484,-27.832,-32.715,-30.273,0
1594927355.056,-14.648,-25.391,-34.180,-20.508,0
1594927355.060,-19.531,-18.555,-31.250,-19.043,0
1594927355.064,-24.414,-27.344,-27.832,-20.020,0
1594927355.068,-25.879,-28.320,-24.902,-30.762,0
1594927355.072,-27.832,-22.949,-26.367,-35.156,0
1594927355.076,-27.832,-24.902,-25.879,-33.203,0
1594927355.080,-41.016,-29.785,-26.855,-37.109,0
1594927355.083,-53.223,-39.062,-23.438,-34.668,0
1594927355.087,-47.363,-42.969,-19.531,-33.691,0
1594927355.091,-47.852,-37.109,-23.438,-44.922,0
1594927355.095,-45.410,-39.551,-27.832,-47.363,0
1594927355.099,-39.551,-41.504,-30.273,-45.410,0
1594927355.093,-39.551,-39.062,-24.414,-45.898,0
1594927355.097,-40.527,-41.016,-27.344,-49.316,0
1594927355.101,-42.480,-42.480,-29.785,-52.734,0
1594927355.105,-41.504,-35.645,-29.297,-47.852,0
1594927355.109,-39.551,-30.273,-28.320,-41.504,0
1594927355.113,-36.133,-29.785,-27.344,-36.621,0
1594927355.117,-33.691,-24.902,-23.438,-31.250,0
1594927355.120,-27.832,-22.949,-18.555,-41.016,0
1594927355.124,-24.902,-22.949,-18.066,-43.945,0
1594927355.128,-29.297,-23.926,-20.996,-33.203,0
1594927355.132,-29.785,-35.156,-21.973,-37.598,0
1594927355.136,-29.785,-40.527,-20.996,-39.062,0
1594927355.151,-26.855,-35.156,-21.973,-34.668,0
1594927355.155,-30.273,-34.668,-23.438,-41.016,0
1594927355.159,-28.320,-31.250,-28.320,-36.621,0
1594927355.163,-33.203,-34.180,-25.391,-32.715,0
1594927355.167,-47.363,-41.504,-22.949,-41.992,0
1594927355.171,-37.109,-37.109,-23.926,-42.480,0
1594927355.175,-34.180,-35.645,-25.391,-32.715,0
1594927355.178,-38.086,-39.551,-26.855,-30.273,0
1594927355.182,-35.156,-39.062,-27.832,-36.133,0
1594927355.186,-39.551,-37.109,-30.273,-40.527,0
1594927355.190,-37.109,-35.645,-32.227,-38.574,0
1594927355.194,-30.273,-31.250,-34.668,-39.062,0
1594927355.187,-26.855,-39.551,-31.738,-36.621,0
1594927355.191,-20.020,-41.504,-21.973,-33.691,0
1594927355.195,-19.043,-32.227,-20.020,-29.297,0
1594927355.199,-24.902,-29.785,-20.508,-22.949,0
1594927355.203,-27.344,-35.645,-24.902,-30.273,0
1594927355.207,-22.461,-36.621,-27.344,-35.156,0
1594927355.211,-24.414,-30.762,-25.391,-34.180,0
1594927355.214,-22.949,-34.180,-27.832,-36.133,0
1594927355.218,-25.879,-33.691,-28.320,-35.156,0
1594927355.222,-31.738,-30.762,-24.902,-27.832,0
1594927355.226,-30.762,-27.344,-22.461,-32.227,0
1594927355.230,-31.250,-29.785,-31.250,-38.086,0
1594927355.243,-29.785,-26.367,-29.785,-33.203,0
1594927355.247,-25.879,-15.625,-26.855,-38.086,0
1594927355.251,-29.785,-21.973,-25.879,-40.527,0
1594927355.255,-32.227,-29.785,-28.809,-44.434,0
1594927355.259,-32.715,-33.691,-24.902,-48.340,0
1594927355.263,-35.156,-23.926,-20.020,-45.898,0
1594927355.267,-37.109,-25.391,-23.438,-50.293,0
1594927355.270,-31.738,-29.297,-23.926,-43.457,0
1594927355.274,-27.832,-26.855,-24.414,-38.086,0
1594927355.278,-26.367,-36.621,-21.973,-32.715,0
1594927355.282,-19.531,-36.133,-23.926,-29.785,0
1594927355.286,-11.230,-32.227,-26.855,-40.039,0
1594927355.281,-22.461,-30.273,-26.855,-41.504,0
1594927355.285,-27.832,-28.320,-28.809,-39.551,0
1594927355.289,-27.344,-33.691,-24.902,-42.969,0
1594927355.293,-32.715,-36.621,-25.391,-46.387,0
1594927355.297,-33.203,-44.922,-33.691,-49.805,0
1594927355.301,-28.320,-41.504,-30.762,-46.875,0
1594927355.305,-36.621,-37.109,-28.320,-52.734,0
1594927355.308,-44.434,-39.551,-26.367,-46.387,0
1594927355.312,-40.527,-36.621,-22.949,-39.062,0
1594927355.316,-39.062,-39.062,-23.926,-41.016,0
1594927355.320,-40.039,-39.062,-19.043,-38.086,0
1594927355.324,-43.457,-40.527,-27.344,-41.016,0
1594927355.337,-42.480,-47.852,-36.621,-44.434,0
1594927355.341,-42.969,-38.574,-37.109,-48.828,0
1594927355.345,-49.805,-33.691,-41.016,-55.664,0
1594927355.349,-49.316,-30.762,-26.855,-46.875,0
1594927355.353,-41.992,-29.297,-19.043,-46.875,0
1594927355.357,-44.922,-36.621,-23.926,-52.246,0
1594927355.361,-47.363,-36.621,-20.020,-45.898,0
1594927355.364,-41.504,-30.762,-18.555,-37.598,0
1594927355.368,-40.039,-35.645,-23.926,-42.480,0
1594927355.372,-39.062,-36.621,-26.367,-42.480,0
1594927355.376,-34.180,-36.133,-26.855,-39.062,0
1594927355.380,-37.598,-38.574,-35.645,-51.270,0
1594927355.376,-31.250,-35.156,-34.668,-63.965,0
1594927355.380,-25.879,-38.086,-32.715,-57.129,0
1594927355.384,-32.227,-39.551,-36.621,-54.199,0
1594927355.388,-26.855,-41.504,-35.156,-57.129,0
1594927355.392,-25.391,-41.992,-27.832,-47.363,0
1594927355.396,-37.109,-42.480,-25.391,-32.715,0
1594927355.400,-42.969,-33.691,-25.391,-23.438,0
1594927355.403,-40.039,-31.250,-20.508,-22.949,0
1594927355.407,-34.180,-33.691,-18.066,-23.438,0
1594927355.411,-32.715,-29.297,-21.484,-23.438,0
1594927355.415,-37.598,-32.227,-24.414,-39.551,0
1594927355.419,-42.480,-41.992,-26.367,-39.551,0
1594927355.431,-37.598,-40.527,-27.832,-36.621,0
1594927355.435,-31.250,-26.855,-30.273,-37.598,0
1594927355.439,-28.809,-28.320,-30.762,-46.875,0
1594927355.443,-31.250,-29.297,-32.715,-55.664,0
1594927355.447,-34.668,-28.809,-33.203,-57.129,0
1594927355.451,-28.320,-30.273,-31.250,-53.223,0
1594927355.455,-20.508,-25.879,-32.227,-46.875,0
1594927355.458,-27.832,-26.367,-30.273,-45.410,0
1594927355.462,-29.297,-28.320,-26.855,-43.457,0
1594927355.466,-28.320,-28.809,-26.367,-42.480,0
1594927355.470,-34.180,-28.320,-17.578,-42.480,0
1594927355.474,-28.320,-22.949,-20.020,-45.410,0
1594927355.468,-31.738,-20.508,-27.344,-47.852,0
1594927355.472,-34.668,-24.902,-21.484,-39.551,0
1594927355.476,-28.809,-30.762,-23.926,-44.922,0
1594927355.480,-24.902,-29.785,-29.785,-48.340,0
1594927355.484,-27.832,-25.391,-22.461,-42.480,0
1594927355.488,-36.133,-27.832,-21.484,-45.898,0
1594927355.492,-40.039,-31.738,-18.066,-47.852,0
1594927355.495,-40.039,-30.273,-15.137,-46.875,0
1594927355.499,-41.504,-31.738,-24.414,-47.363,0
1594927355.503,-40.527,-39.551,-23.438,-42.969,0
1594927355.507,-35.645,-41.016,-21.973,-41.992,0
1594927355.511,-41.504,-39.551,-32.715,-47.363,0
1594927355.524,-40.039,-41.016,-21.484,-45.410,0
1594927355.528,-28.809,-35.156,-17.578,-35.645,0
1594927355.532,-21.484,-31.738,-22.461,-33.203,0
1594927355.536,-26.855,-34.180,-26.855,-44.922,0
1594927355.540,-36.621,-36.133,-32.227,-45.410,0
1594927355.544,-33.203,-35.645,-31.738,-38.574,0
1594927355.548,-23.926,-38.574,-32.227,-51.270,0
1594927355.551,-37.598,-37.598,-30.762,-57.129,0
1594927355.555,-42.969,-35.156,-32.227,-49.316,0
1594927355.559,-35.156,-35.645,-34.668,-38.574,0
1594927355.563,-38.574,-38.086,-33.203,-41.504,0
1594927355.567,-41.016,-43.945,-29.297,-43.457,0
1594927355.562,-39.062,-43.457,-25.391,-45.410,0
1594927355.566,-45.410,-43.945,-29.297,-49.316,0
1594927355.570,-46.875,-49.316,-31.250,-54.688,0
1594927355.574,-37.598,-45.410,-22.949,-51.270,0
1594927355.578,-31.738,-37.109,-23.926,-44.922,0
1594927355.582,-28.320,-34.668,-29.785,-42.480,0
1594927355.586,-23.438,-38.574,-26.367,-33.203,0
1594927355.589,-24.902,-39.551,-30.273,-36.133,0
1594927355.593,-24.414,-46.387,-41.992,-42.480,0
1594927355.597,-24.902,-45.898,-40.527,-34.180,0
1594927355.601,-30.273,-38.574,-32.227,-31.250,0
1594927355.605,-22.461,-37.109,-31.738,-29.785,0
1594927355.618,-20.020,-34.180,-28.809,-36.133,0
1594927355.622,-33.691,-38.574,-35.156,-41.016,0
1594927355.626,-39.551,-41.992,-31.738,-25.879,0
1594927355.630,-40.527,-37.109,-26.367,-34.668,0
1594927355.634,-35.156,-31.250,-32.227,-39.062,0
1594927355.638,-38.086,-30.762,-35.645,-37.598,0
1594927355.642,-40.039,-32.715,-41.504,-35.156,0
1594927355.645,-39.551,-36.621,-40.039,-27.832,0
1594927355.649,-38.574,-41.016,-34.180,-25.391,0
1594927355.653,-31.250,-38.086,-31.250,-36.621,0
1594927355.657,-40.039,-39.062,-32.715,-56.641,0
1594927355.661,-40.527,-41.992,-33.203,-47.852,0
1594927355.656,-26.367,-40.039,-30.273,-35.645,0
1594927355.660,-27.832,-38.574,-31.250,-32.715,0
1594927355.664,-35.645,-38.086,-37.109,-38.086,0
1594927355.668,-31.738,-48.828,-36.621,-43.457,0
1594927355.672,-32.715,-51.270,-33.203,-37.598,0
1594927355.676,-30.273,-36.621,-32.715,-41.992,0
1594927355.680,-26.855,-37.109,-30.762,-49.316,0
1594927355.683,-28.809,-40.039,-27.344,-38.574,0
1594927355.687,-29.297,-37.109,-31.250,-33.203,0
1594927355.691,-27.344,-38.086,-37.109,-27.832,0
1594927355.695,-38.574,-38.574,-27.344,-30.273,0
1594927355.699,-44.434,-38.574,-18.066,-36.133,1
1594927355.712,-40.527,-36.621,-19.043,-33.203,0
1594927355.716,-38.086,-35.645,-17.578,-35.645,0
1594927355.720,-26.855,-41.992,-17.090,-36.621,0
1594927355.724,-30.762,-46.387,-21.973,-37.109,0
1594927355.728,-36.133,-46.387,-24.902,-42.480,0
1594927355.732,-36.133,-46.875,-27.344,-44.434,0
1594927355.736,-37.598,-43.945,-38.086,-41.992,0
1594927355.739,-42.969,-39.062,-48.828,-43.945,0
1594927355.743,-40.527,-38.574,-41.504,-48.828,0
1594927355.747,-32.227,-40.039,-38.086,-46.387,0
1594927355.751,-41.016,-41.992,-38.086,-48.340,0
1594927355.755,-42.969,-37.109,-37.598,-50.781,0
1594927355.749,-28.809,-38.086,-33.691,-44.922,0
1594927355.753,-32.227,-43.457,-31.738,-43.945,0
1594927355.757,-40.527,-41.992,-31.738,-41.504,0
1594927355.761,-41.504,-45.898,-33.203,-41.016,0
1594927355.765,-40.527,-46.875,-30.762,-35.645,0
1594927355.769,-37.109,-45.410,-29.297,-31.250,0
1594927355.773,-36.621,-40.039,-28.320,-35.156,0
1594927355.776,-30.762,-35.156,-21.973,-36.621,0
1594927355.780,-23.926,-34.668,-26.367,-27.832,0
1594927355.784,-25.391,-31.738,-34.180,-27.344,0
1594927355.788,-30.762,-30.762,-31.250,-37.109,0
1594927355.792,-46.387,-31.738,-30.273,-41.992,0
1594927355.806,-45.898,-28.320,-27.344,-41.016,0
1594927355.810,-45.898,-32.715,-30.273,-34.180,0
1594927355.814,-47.852,-32.227,-36.621,-28.320,0
1594927355.818,-40.527,-39.551,-26.855,-32.227,0
1594927355.822,-38.574,-56.152,-30.762,-29.297,0
1594927355.826,-38.086,-51.270,-37.109,-32.715,0
1594927355.830,-33.203,-42.969,-30.273,-38.086,0
1594927355.833,-30.762,-40.039,-29.785,-35.645,0
1594927355.837,-28.809,-38.574,-29.297,-31.250,0
1594927355.841,-24.414,-40.039,-25.879,-23.438,0
1594927355.845,-26.367,-41.016,-24.414,-23.926,0
1594927355.849,-25.391,-31.738,-27.344,-28.809,0
1594927355.845,-12.207,-26.855,-26.367,-29.785,0
1594927355.849,-23.438,-26.367,-23.438,-29.297,0
1594927355.853,-30.762,-30.762,-24.414,-35.156,0
1594927355.857,-22.461,-36.621,-21.484,-36.133,0
1594927355.861,-27.832,-36.133,-20.508,-35.645,0
1594927355.865,-36.133,-37.598,-24.902,-36.133,0
1594927355.869,-36.621,-38.086,-26.855,-39.062,0
1594927355.872,-41.992,-40.039,-28.320,-42.969,0
1594927355.876,-45.898,-39.062,-36.621,-42.480,0
1594927355.880,-43.457,-37.598,-35.645,-41.992,0
1594927355.884,-45.898,-35.156,-31.738,-43.945,0
1594927355.888,-42.969,-39.062,-34.180,-34.180,0
1594927355.899,-35.156,-40.039,-31.738,-30.273,0
1594927355.903,-35.645,-40.527,-29.785,-39.551,0
1594927355.907,-39.062,-40.039,-33.691,-41.992,0
1594927355.911,-30.762,-30.273,-33.203,-41.504,0
1594927355.915,-26.855,-28.809,-24.902,-33.691,0
1594927355.919,-25.879,-31.738,-21.484,-26.855,0
1594927355.923,-27.832,-28.809,-24.902,-30.762,0
1594927355.926,-33.203,-26.855,-20.996,-26.855,0
1594927355.930,-30.762,-29.297,-19.043,-26.367,0
1594927355.934,-36.621,-33.203,-24.902,-38.086,0
1594927355.938,-30.762,-35.645,-24.414,-34.668,0
1594927355.942,-26.367,-35.645,-30.273,-25.879,0
1594927355.937,-30.273,-29.785,-32.715,-29.785,0
1594927355.941,-23.926,-32.227,-34.668,-34.668,0
1594927355.945,-23.926,-33.203,-37.109,-27.832,0
1594927355.949,-32.715,-35.156,-34.180,-25.879,0
1594927355.953,-30.762,-36.133,-31.738,-28.320,0
1594927355.957,-21.973,-32.227,-30.762,-19.043,0
1594927355.961,-12.207,-28.809,-29.297,-16.113,0
1594927355.964,-22.949,-31.250,-32.715,-27.832,0
1594927355.968,-29.785,-41.992,-35.645,-33.691,0
1594927355.972,-24.902,-46.875,-37.598,-30.762,0
1594927355.976,-30.762,-41.504,-29.297,-35.156,0
1594927355.980,-26.855,-38.086,-26.367,-34.668,0
1594927355.993,-24.902,-41.992,-28.320,-28.320,0
1594927355.997,-21.484,-42.969,-28.809,-29.785,0
1594927356.001,-25.391,-44.434,-40.039,-34.180,0
1594927356.005,-37.109,-43.945,-36.621,-39.062,0
1594927356.009,-38.086,-46.387,-29.785,-49.805,0
1594927356.013,-38.086,-43.457,-35.645,-54.688,0
1594927356.017,-38.086,-20.996,-37.109,-43.457,0
1594927356.020,-29.297,-16.602,-31.250,-36.133,0
1594927356.024,-29.297,-29.297,-25.879,-40.527,0
1594927356.028,-38.086,-38.574,-25.879,-41.016,0
1594927356.032,-33.203,-43.457,-22.461,-40.039,0
1594927356.036,-22.461,-39.551,-26.367,-40.527,0
1594927356.031,-26.855,-35.156,-24.414,-35.156,0
1594927356.035,-28.320,-37.598,-22.461,-28.809,0
1594927356.039,-31.250,-43.945,-37.598,-33.691,0
1594927356.043,-33.203,-36.621,-38.574,-38.086,0
1594927356.047,-32.715,-31.738,-31.250,-38.574,0
1594927356.051,-31.738,-39.062,-32.227,-39.551,0
1594927356.055,-31.250,-40.039,-30.273,-34.668,0
1594927356.058,-33.203,-34.180,-23.926,-35.156,0
1594927356.062,-31.738,-32.715,-21.973,-41.504,0
1594927356.066,-25.391,-33.203,-22.461,-31.738,0
1594927356.070,-27.832,-30.273,-17.090,-30.273,0
1594927356.074,-28.320,-34.180,-16.602,-35.645,0
1594927356.087,-28.809,-34.668,-20.508,-36.133,0
1594927356.091,-29.785,-28.320,-23.926,-33.691,0
1594927356.095,-25.879,-32.227,-22.461,-30.273,0
1594927356.099,-28.320,-36.133,-21.973,-32.715,0
1594927356.103,-33.691,-37.598,-28.809,-30.762,0
1594927356.107,-31.250,-36.621,-29.297,-27.832,0
1594927356.111,-27.344,-21.484,-32.715,-34.668,0
1594927356.114,-35.156,-20.020,-29.785,-43.945,0
1594927356.118,-35.645,-29.785,-25.391,-40.527,0
1594927356.122,-28.320,-32.227,-27.832,-22.949,0
1594927356.126,-30.762,-28.320,-26.367,-21.973,0
1594927356.130,-33.203,-32.715,-24.902,-33.203,0
1594927356.126,-25.879,-29.785,-26.855,-36.621,0
1594927356.130,-24.414,-31.250,-27.344,-36.133,0
1594927356.134,-26.367,-31.250,-24.902,-39.062,0
1594927356.138,-23.438,-31.738,-26.367,-39.062,0
1594927356.142,-23.926,-38.086,-20.508,-31.738,0
1594927356.146,-27.344,-33.203,-13.672,-34.668,0
1594927356.150,-29.785,-34.668,-12.695,-35.645,0
1594927356.153,-31.250,-42.969,-16.113,-27.832,0
1594927356.157,-33.203,-38.086,-22.949,-37.598,0
1594927356.161,-34.668,-37.109,-22.949,-47.852,0
1594927356.165,-32.227,-37.598,-21.484,-36.133,0
1594927356.169,-27.832,-35.156,-20.508,-26.855,0
1594927356.181,-30.762,-37.109,-22.949,-36.133,0
1594927356.185,-36.133,-33.691,-25.391,-43.945,0
1594927356.189,-38.086,-35.156,-22.949,-44.922,0
1594927356.193,-37.109,-37.109,-27.344,-49.316,0
1594927356.197,-30.273,-21.973,-28.809,-44.434,0
1594927356.201,-21.973,-16.113,-26.367,-49.805,0
1594927356.205,-19.531,-23.926,-30.273,-60.547,0
1594927356.208,-17.578,-20.996,-28.809,-50.781,0
1594927356.212,-17.090,-17.090,-19.531,-41.504,0
1594927356.216,-20.508,-25.391,-11.719,-35.645,0
1594927356.220,-32.227,-34.668,-18.066,-36.621,0
1594927356.224,-36.621,-30.762,-27.344,-34.668,0
1594927356.218,-43.457,-29.297,-23.926,-36.133,0
1594927356.222,-41.992,-29.297,-24.902,-40.527,0
1594927356.226,-39.551,-26.855,-33.203,-39.551,0
1594927356.230,-36.621,-33.203,-22.461,-34.180,0
1594927356.234,-38.086,-36.133,-17.090,-36.133,0
1594927356.238,-41.504,-31.738,-24.414,-42.969,0
1594927356.242,-39.551,-33.691,-24.414,-38.574,0
1594927356.245,-38.574,-32.715,-25.879,-35.156,0
1594927356.249,-33.691,-26.367,-27.344,-39.062,0
1594927356.253,-32.227,-28.320,-25.879,-34.180,0
1594927356.257,-24.902,-33.203,-20.508,-35.156,0
1594927356.261,-19.043,-25.879,-20.996,-36.133,0
1594927356.274,-22.461,-25.391,-21.973,-28.809,0
1594927356.278,-21.973,-26.855,-20.508,-25.879,0
1594927356.282,-21.484,-24.414,-26.855,-32.715,0
1594927356.286,-15.137,-26.367,-26.367,-36.621,0
1594927356.290,-10.742,-24.902,-24.902,-39.062,0
1594927356.294,-21.484,-28.809,-33.203,-45.410,0
1594927356.298,-24.414,-34.180,-36.133,-36.621,0
1594927356.301,-24.414,-30.273,-30.762,-28.809,0
1594927356.305,-21.973,-26.367,-30.273,-35.645,0
1594927356.309,-22.949,-29.785,-35.156,-39.551,0
1594927356.313,-15.137,-33.203,-36.133,-36.621,0
1594927356.317,-11.230,-37.598,-32.227,-36.621,0
1594927356.312,-16.113,-47.363,-22.461,-35.645,0
1594927356.316,-13.184,-43.457,-23.926,-39.551,0
1594927356.320,-17.578,-37.598,-34.180,-55.664,0
1594927356.324,-21.484,-40.527,-30.762,-45.898,0
1594927356.328,-21.484,-40.039,-23.926,-41.504,0
1594927356.332,-23.926,-31.738,-18.555,-34.668,0
1594927356.336,-19.043,-31.738,-18.066,-30.762,0
1594927356.339,-18.555,-34.668,-26.367,-42.480,0
1594927356.343,-24.902,-28.320,-27.832,-46.875,0
1594927356.347,-27.344,-30.273,-31.250,-48.340,0
1594927356.351,-26.855,-31.250,-29.785,-46.875,0
1594927356.355,-22.949,-33.691,-28.320,-50.293,0
1594927356.369,-22.461,-36.621,-26.367,-49.805,0
1594927356.373,-25.879,-41.016,-24.902,-43.945,0
1594927356.377,-35.156,-50.781,-30.762,-41.504,0
1594927356.381,-39.551,-41.504,-23.926,-48.340,0
1594927356.385,-27.344,-31.738,-22.949,-49.805,0
1594927356.389,-27.344,-42.480,-26.855,-43.457,0
1594927356.393,-40.039,-41.992,-24.902,-45.898,0
1594927356.396,-29.785,-26.367,-21.484,-45.410,0
1594927356.400,-27.344,-26.855,-21.973,-49.805,0
1594927356.404,-26.367,-36.133,-23.438,-46.875,0
1594927356.408,-25.879,-35.645,-23.438,-39.062,0
1594927356.412,-34.668,-34.180,-26.367,-38.086,0
1594927356.406,-34.180,-35.645,-29.297,-46.387,0
1594927356.410,-35.156,-33.691,-32.227,-46.875,0
1594927356.414,-33.203,-31.250,-27.832,-26.367,0
1594927356.418,-31.738,-33.203,-28.320,-24.902,0
1594927356.422,-38.086,-38.086,-27.832,-37.109,0
1594927356.426,-35.156,-38.086,-21.484,-26.855,0
1594927356.430,-39.551,-40.527,-25.391,-31.250,0
1594927356.433,-43.457,-41.992,-26.855,-41.504,0
1594927356.437,-35.156,-35.156,-26.367,-33.203,0
1594927356.441,-29.297,-36.621,-33.691,-21.973,0
1594927356.445,-32.715,-40.039,-38.086,-30.762,0
1594927356.449,-31.250,-40.039,-32.715,-38.086,0
1594927356.462,-34.668,-37.598,-29.297,-28.320,0
1594927356.466,-34.180,-37.598,-30.762,-28.809,0
1594927356.470,-31.738,-41.504,-30.762,-31.250,0
1594927356.474,-27.832,-40.039,-26.367,-30.762,0
1594927356.478,-24.902,-34.180,-25.391,-27.832,0
1594927356.482,-27.344,-34.180,-28.320,-26.367,0
1594927356.486,-27.344,-30.762,-29.785,-19.531,1
1594927356.489,-32.715,-23.926,-30.762,-28.320,0
1594927356.493,-32.227,-19.043,-26.855,-35.156,0
1594927356.497,-28.809,-17.090,-19.531,-27.832,0
1594927356.501,-33.203,-30.273,-14.160,-32.227,0
1594927356.505,-32.227,-33.691,-14.648,-29.785,0
1594927356.499,-28.320,-26.367,-22.461,-29.785,0
1594927356.503,-22.461,-26.855,-23.438,-30.762,0
1594927356.507,-20.508,-22.461,-20.020,-25.391,0
1594927356.511,-29.785,-18.066,-19.043,-27.832,0
1594927356.515,-34.180,-15.625,-20.508,-34.180,0
1594927356.519,-29.785,-15.137,-22.461,-30.762,0
1594927356.523,-29.297,-18.555,-23.438,-33.203,0
1594927356.526,-27.344,-20.996,-23.926,-39.551,0
1594927356.530,-32.715,-26.855,-28.809,-33.203,0
1594927356.534,-37.598,-33.203,-33.203,-30.762,0
1594927356.538,-34.668,-34.668,-28.320,-41.016,0
1594927356.542,-35.645,-32.227,-26.855,-43.457,0
1594927356.556,-35.645,-31.738,-28.320,-42.969,0
1594927356.560,-38.574,-34.668,-32.715,-42.480,0
1594927356.564,-31.738,-25.391,-36.133,-37.598,0
1594927356.568,-26.855,-10.254,-29.785,-34.180,0
1594927356.572,-35.156,-12.207,-31.738,-38.086,0
1594927356.576,-39.062,-18.066,-38.574,-44.922,0
1594927356.580,-36.621,-21.973,-41.992,-46.875,0
1594927356.583,-39.551,-29.297,-39.062,-49.316,0
1594927356.587,-42.480,-43.457,-40.527,-50.293,0
1594927356.591,-39.551,-52.734,-39.062,-51.758,0
1594927356.595,-35.645,-40.039,-36.133,-50.293,0
1594927356.599,-27.344,-38.574,-36.133,-41.992,0
1594927356.594,-20.996,-39.551,-25.391,-42.969,0
1594927356.598,-23.926,-35.645,-16.602,-41.504,0
1594927356.602,-33.691,-45.898,-17.090,-42.969,0
1594927356.606,-28.320,-47.363,-24.902,-34.668,0
1594927356.610,-35.156,-33.203,-29.297,-28.809,0
1594927356.614,-43.945,-26.855,-30.273,-39.062,0
1594927356.618,-40.039,-25.391,-30.762,-41.016,0
1594927356.621,-42.480,-41.504,-25.879,-40.527,0
1594927356.625,-38.574,-47.363,-25.391,-44.922,0
1594927356.629,-33.691,-41.992,-27.832,-39.062,0
1594927356.633,-35.156,-36.133,-27.832,-41.504,0
1594927356.637,-37.109,-37.598,-32.227,-51.758,0
1594927356.649,-30.762,-43.457,-20.020,-46.387,0
1594927356.653,-24.902,-33.203,-14.160,-37.109,0
1594927356.657,-26.855,-28.320,-23.926,-33.691,0
1594927356.661,-30.273,-31.250,-25.391,-32.715,0
1594927356.665,-39.551,-35.645,-24.414,-39.062,0
1594927356.669,-45.898,-39.062,-34.180,-42.480,0
1594927356.673,-41.504,-46.387,-32.715,-41.992,0
1594927356.676,-35.156,-32.715,-20.996,-36.621,0
1594927356.680,-30.762,-29.785,-17.578,-32.715,0
1594927356.684,-29.785,-41.016,-22.461,-29.297,0
1594927356.688,-27.832,-39.551,-30.273,-28.809,0
1594927356.692,-33.203,-37.109,-30.762,-25.879,0
1594927356.687,-35.156,-35.645,-27.344,-30.762,0
1594927356.691,-29.785,-31.738,-28.320,-42.480,0
1594927356.695,-29.297,-27.832,-29.297,-38.574,0
1594927356.699,-29.785,-30.273,-31.250,-30.273,0
1594927356.703,-22.949,-27.832,-33.691,-28.320,0
1594927356.707,-24.414,-26.855,-33.691,-29.785,0
1594927356.711,-33.203,-29.297,-34.180,-34.668,0
1594927356.714,-36.133,-26.855,-28.809,-35.156,0
1594927356.718,-26.367,-27.344,-22.461,-27.832,0
1594927356.722,-25.879,-26.855,-24.902,-22.949,0
1594927356.726,-24.414,-26.855,-21.973,-24.414,0
1594927356.730,-22.461,-25.879,-18.555,-31.250,0
1594927356.743,-35.156,-21.484,-23.926,-30.762,0
1594927356.747,-32.715,-28.809,-21.484,-28.320,0
1594927356.751,-24.902,-31.738,-20.020,-23.438,0
1594927356.755,-27.344,-24.902,-21.484,-24.414,0
1594927356.759,-20.020,-26.367,-20.996,-30.273,0
1594927356.763,-10.254,-31.738,-22.949,-25.391,0
1594927356.767,-20.508,-33.203,-26.367,-24.902,0
1594927356.770,-29.785,-26.367,-23.926,-28.809,0
1594927356.774,-24.414,-23.926,-22.461,-25.879,0
1594927356.778,-22.949,-31.250,-23.438,-20.996,0
1594927356.782,-26.367,-30.762,-22.461,-15.625,0
1594927356.786,-25.391,-31.738,-25.391,-12.695,0
1594927356.781,-32.715,-30.762,-25.879,-29.785,0
1594927356.785,-36.133,-28.809,-29.785,-34.668,0
1594927356.789,-33.203,-31.738,-26.367,-30.273,0
1594927356.793,-28.809,-39.062,-24.902,-27.832,0
1594927356.797,-37.598,-44.922,-29.297,-33.691,0
1594927356.801,-36.621,-39.551,-28.320,-38.086,0
1594927356.805,-36.621,-37.598,-25.391,-35.156,0
1594927356.808,-37.109,-35.645,-23.926,-35.156,0
1594927356.812,-35.156,-26.367,-28.809,-37.109,0
1594927356.816,-45.410,-30.762,-26.855,-40.039,0
1594927356.820,-43.945,-36.133,-23.926,-40.527,0
1594927356.824,-36.621,-28.809,-29.297,-38.086,0
1594927356.837,-36.133,-30.762,-29.297,-37.109,0
1594927356.841,-39.551,-36.133,-36.621,-39.551,0
1594927356.845,-45.898,-36.621,-39.551,-45.410,0
1594927356.849,-41.016,-30.762,-35.645,-52.734,0
1594927356.853,-38.086,-25.879,-49.805,-45.410,0
1594927356.857,-45.898,-33.203,-51.758,-41.992,0
1594927356.861,-45.410,-39.551,-45.898,-47.852,0
1594927356.864,-43.945,-34.180,-35.645,-49.805,0
1594927356.868,-47.363,-40.039,-29.297,-53.223,0
1594927356.872,-43.945,-41.016,-36.133,-54.199,0
1594927356.876,-36.133,-35.156,-28.809,-45.898,0
1594927356.880,-38.086,-40.039,-23.438,-41.992,0
1594927356.874,-39.062,-41.016,-28.809,-36.133,0
1594927356.878,-36.621,-43.945,-26.367,-32.715,0
1594927356.882,-38.086,-51.758,-23.926,-42.969,0
1594927356.886,-31.250,-47.852,-27.344,-43.945,0
1594927356.890,-31.250,-38.574,-25.879,-41.992,0
1594927356.894,-34.180,-35.645,-28.320,-45.410,0
1594927356.898,-39.062,-36.621,-31.738,-51.270,0
1594927356.901,-43.945,-35.645,-20.508,-55.664,0
1594927356.905,-47.852,-33.691,-23.926,-53.711,0
1594927356.909,-51.758,-33.203,-31.738,-52.734,0
1594927356.913,-43.457,-31.250,-27.344,-50.781,0
1594927356.917,-38.574,-37.598,-35.156,-41.992,0
1594927356.931,-42.969,-42.480,-36.133,-34.668,0
1594927356.935,-44.922,-44.922,-31.738,-32.227,0
1594927356.939,-46.387,-41.504,-29.785,-29.785,0
1594927356.943,-42.480,-38.086,-21.973,-32.715,0
1594927356.947,-40.527,-37.109,-20.996,-31.250,0
1594927356.951,-45.898,-38.574,-26.855,-25.391,0
1594927356.955,-35.645,-37.109,-27.344,-24.902,0
1594927356.958,-40.527,-35.156,-24.902,-32.227,0
1594927356.962,-43.457,-32.715,-22.949,-44.434,0
1594927356.966,-39.062,-32.715,-23.926,-46.875,0
1594927356.970,-34.180,-35.156,-26.367,-43.457,0
1594927356.974,-27.832,-34.180,-29.785,-41.504,0
1594927356.968,-36.621,-34.180,-28.809,-39.062,0
1594927356.972,-40.527,-31.250,-23.438,-41.016,0
1594927356.976,-27.832,-25.391,-20.996,-35.645,0
1594927356.980,-30.762,-29.297,-25.391,-27.832,0
1594927356.984,-39.551,-32.227,-26.855,-32.227,0
1594927356.988,-39.062,-32.715,-34.180,-46.875,0
1594927356.992,-42.480,-37.598,-34.180,-55.664,0
1594927356.995,-42.480,-38.086,-19.531,-52.734,0
1594927356.999,-23.926,-37.109,-13.672,-37.109,0
1594927357.003,-12.695,-38.086,-18.555,-30.273,0
1594927357.007,-11.230,-36.133,-14.160,-39.551,0
1594927357.011,-11.719,-37.598,-14.648,-39.551,0
1594927357.024,-14.648,-33.691,-20.020,-30.273,0
1594927357.028,-20.508,-36.621,-17.578,-26.367,0
1594927357.032,-34.668,-43.457,-20.996,-27.344,0
1594927357.036,-43.457,-38.086,-16.113,-20.020,0
1594927357.040,-42.969,-28.320,-14.648,-12.695,0
1594927357.044,-41.992,-31.250,-23.438,-34.668,0
1594927357.048,-38.574,-28.809,-25.391,-38.574,0
1594927357.051,-34.668,-20.020,-16.113,-24.902,0
1594927357.055,-41.992,-31.738,-17.090,-29.297,0
1594927357.059,-38.086,-31.738,-20.020,-39.062,0
1594927357.063,-25.879,-23.438,-18.555,-34.180,0
1594927357.067,-25.879,-29.785,-24.414,-36.133,0
1594927357.062,-22.949,-26.855,-20.996,-43.457,0
1594927357.066,-20.996,-25.391,-15.137,-38.574,0
1594927357.070,-29.785,-33.203,-11.719,-35.156,0
1594927357.074,-30.273,-30.273,-19.531,-36.133,0
1594927357.078,-27.832,-29.785,-26.855,-39.062,0
1594927357.082,-34.180,-35.156,-29.297,-43.457,0
1594927357.086,-42.969,-35.645,-32.715,-43.457,0
1594927357.089,-39.551,-34.668,-34.180,-41.504,0
1594927357.093,-38.574,-39.062,-38.574,-39.551,0
1594927357.097,-40.527,-41.992,-40.527,-42.969,0
1594927357.101,-40.039,-41.016,-35.645,-46.387,0
1594927357.105,-34.668,-37.598,-33.203,-45.410,0
1594927357.119,-34.180,-37.598,-37.598,-47.852,0
1594927357.123,-37.598,-42.480,-35.645,-42.480,0
1594927357.127,-37.109,-35.156,-28.809,-44.434,0
1594927357.131,-36.621,-33.691,-30.762,-49.316,0
1594927357.135,-35.645,-39.062,-34.180,-33.203,0
1594927357.139,-36.621,-35.645,-32.227,-43.945,0
1594927357.143,-42.969,-44.434,-39.062,-66.895,0
1594927357.146,-36.133,-44.434,-37.598,-60.059,0
1594927357.150,-26.855,-38.574,-30.273,-44.922,0
1594927357.154,-19.531,-37.109,-28.809,-41.504,0
1594927357.158,-17.578,-36.621,-29.785,-39.551,0
1594927357.162,-18.555,-36.133,-34.668,-32.715,0
1594927357.156,-27.832,-39.062,-36.621,-38.086,0
1594927357.160,-28.320,-43.457,-40.039,-37.598,0
1594927357.164,-28.320,-45.410,-39.062,-34.668,0
1594927357.168,-30.273,-42.969,-30.273,-33.691,0
1594927357.172,-19.043,-38.574,-35.645,-31.250,0
1594927357.176,-21.484,-43.457,-35.156,-35.645,0
1594927357.180,-26.855,-40.039,-31.250,-39.551,0
1594927357.183,-22.461,-37.598,-33.203,-36.133,0
1594927357.187,-25.879,-45.410,-32.715,-33.691,0
1594927357.191,-28.809,-43.945,-32.227,-40.039,0
1594927357.195,-29.785,-37.109,-27.832,-55.664,0
1594927357.199,-31.738,-33.691,-28.809,-48.828,0
1594927357.212,-32.227,-30.273,-31.738,-40.039,0
1594927357.216,-29.785,-27.832,-30.762,-41.992,0
1594927357.220,-30.762,-28.320,-27.344,-40.039,0
1594927357.224,-28.809,-36.133,-23.926,-41.992,0
1594927357.228,-27.832,-39.551,-25.391,-45.410,0
1594927357.232,-34.668,-39.551,-28.809,-48.340,0
1594927357.236,-38.574,-48.828,-25.391,-39.062,0
1594927357.239,-38.086,-41.016,-21.973,-33.691,1
1594927357.243,-37.109,-32.715,-38.086,-40.527,0
1594927357.247,-33.691,-33.691,-41.504,-44.434,0
1594927357.251,-29.297,-29.785,-27.344,-39.062,0
1594927357.255,-28.320,-29.785,-27.832,-33.203,0
1594927357.249,-33.203,-25.391,-26.855,-34.668,0
1594927357.253,-29.785,-28.320,-30.273,-38.086,0
1594927357.257,-30.273,-33.203,-28.809,-36.621,0
1594927357.261,-27.344,-28.809,-23.926,-37.109,0
1594927357.265,-31.250,-34.668,-29.297,-41.504,0
1594927357.269,-35.645,-36.133,-30.273,-37.109,0
1594927357.273,-31.738,-32.227,-29.297,-41.504,0
1594927357.276,-31.738,-34.180,-33.203,-47.363,0
1594927357.280,-36.621,-37.109,-39.062,-45.410,0
1594927357.284,-37.109,-38.086,-40.527,-37.109,0
1594927357.288,-37.109,-34.180,-34.668,-37.109,0
1594927357.292,-43.945,-35.156,-31.738,-42.480,0
1594927357.306,-39.551,-36.133,-28.809,-42.480,0
1594927357.310,-34.180,-46.875,-27.344,-39.062,0
1594927357.314,-35.645,-52.246,-29.785,-38.574,0
1594927357.318,-42.969,-45.410,-26.855,-46.875,0
1594927357.322,-39.551,-45.898,-30.273,-37.598,0
1594927357.326,-39.062,-45.410,-32.715,-32.715,0
1594927357.330,-41.992,-49.805,-24.902,-29.297,0
1594927357.333,-37.109,-45.898,-22.949,-22.949,0
1594927357.337,-37.109,-44.434,-19.043,-28.320,0
1594927357.341,-38.086,-46.875,-17.090,-31.250,0
1594927357.345,-36.133,-32.715,-24.902,-30.762,0
1594927357.349,-32.227,-33.691,-24.414,-24.414,0
1594927357.344,-33.691,-37.598,-25.391,-30.762,0
1594927357.348,-38.086,-38.086,-28.320,-34.668,0
1594927357.352,-36.621,-37.109,-23.438,-31.738,0
1594927357.356,-28.320,-38.086,-31.738,-33.203,0
1594927357.360,-27.832,-36.133,-36.133,-23.438,0
1594927357.364,-31.738,-38.574,-29.785,-27.344,0
1594927357.368,-34.180,-38.574,-37.598,-35.645,0
1594927357.371,-31.250,-35.156,-37.109,-28.809,0
1594927357.375,-18.555,-30.762,-34.668,-28.320,0
1594927357.379,-19.531,-22.949,-43.945,-32.227,0
1594927357.383,-28.320,-16.113,-37.598,-35.156,0
1594927357.387,-30.273,-18.066,-32.227,-37.109,0
1594927357.399,-35.156,-23.926,-33.203,-39.062,0
1594927357.403,-32.715,-26.367,-33.203,-36.133,0
1594927357.407,-27.832,-29.297,-37.109,-38.086,0
1594927357.411,-29.785,-36.621,-38.086,-41.992,0
1594927357.415,-33.691,-44.434,-39.551,-36.621,0
1594927357.419,-35.156,-42.969,-38.574,-37.598,0
1594927357.423,-42.480,-42.480,-38.086,-39.551,0
1594927357.426,-41.992,-43.945,-37.598,-41.504,0
1594927357.430,-32.227,-40.039,-27.832,-37.598,0
1594927357.434,-35.156,-39.551,-31.738,-38.574,0
1594927357.438,-32.227,-40.527,-33.691,-36.621,0
1594927357.442,-32.227,-38.086,-29.785,-36.133,0
