timestamps,TP9,AF7,AF8,TP10,Marker0
1594927524.388,-26.367,-15.137,-39.062,-48.340,0
1594927524.392,-29.297,-21.484,-38.574,-41.504,0
1594927524.396,-30.762,-23.926,-39.062,-41.992,0
1594927524.400,-38.086,-23.438,-38.574,-50.781,0
1594927524.404,-43.457,-26.367,-34.180,-51.270,0
1594927524.408,-46.387,-24.414,-30.273,-47.363,0
1594927524.412,-58.105,-23.438,-36.621,-52.246,0
1594927524.415,-54.688,-24.414,-38.574,-56.152,0
1594927524.419,-46.387,-20.996,-36.621,-52.734,0
1594927524.423,-41.504,-14.648,-33.691,-42.480,0
1594927524.427,-44.922,-14.648,-25.391,-36.621,0
1594927524.431,-46.387,-16.602,-27.344,-51.758,0
1594927524.444,-48.340,-14.160,-32.715,-62.988,0
1594927524.448,-52.734,-16.602,-34.180,-55.176,0
1594927524.452,-49.805,-18.555,-32.715,-49.316,0
1594927524.456,-36.133,-8.789,-25.391,-44.434,0
1594927524.460,-24.902,-0.977,-24.414,-37.109,0
1594927524.464,-25.879,-4.883,-30.273,-41.992,0
1594927524.468,-27.832,-9.277,-32.227,-38.574,0
1594927524.471,-38.574,-8.789,-25.879,-32.227,0
1594927524.475,-42.969,-6.836,-25.879,-29.297,0
1594927524.479,-37.598,-8.301,-40.039,-32.227,0
1594927524.483,-40.039,-8.789,-43.457,-40.039,0
1594927524.487,-40.527,-16.602,-36.133,-35.156,0
1594927524.482,-31.738,-15.625,-35.645,-38.086,0
1594927524.486,-29.785,-8.789,-34.668,-50.781,0
1594927524.490,-46.387,-13.184,-31.738,-51.270,0
1594927524.494,-47.852,-14.160,-31.738,-41.992,0
1594927524.498,-48.828,-12.695,-33.203,-41.504,0
1594927524.502,-46.875,-10.254,-33.203,-44.922,0
1594927524.506,-42.969,-11.719,-33.691,-41.016,0
1594927524.509,-44.922,-18.555,-30.273,-41.992,0
1594927524.513,-34.180,-21.484,-31.250,-37.598,0
1594927524.517,-31.738,-19.531,-32.715,-25.879,0
1594927524.521,-38.574,-20.020,-33.691,-27.344,0
1594927524.525,-38.086,-23.438,-30.273,-32.715,0
1594927524.538,-33.203,-18.066,-23.438,-35.645,0
1594927524.542,-25.879,-15.137,-29.297,-30.762,0
1594927524.546,-27.832,-12.695,-32.715,-29.297,0
1594927524.550,-33.203,-15.137,-31.250,-31.250,0
1594927524.554,-31.250,-12.207,-30.762,-28.320,0
1594927524.558,-27.344,-10.254,-31.250,-41.992,0
1594927524.562,-29.297,-18.555,-37.598,-36.133,0
1594927524.565,-35.156,-20.020,-38.574,-24.414,0
1594927524.569,-36.133,-21.973,-34.668,-35.645,0
1594927524.573,-34.668,-24.414,-39.551,-42.969,0
1594927524.577,-39.551,-21.484,-43.945,-46.387,0
1594927524.581,-38.086,-13.672,-42.480,-38.086,0
1594927524.575,-32.715,-7.812,-36.621,-38.086,0
1594927524.579,-36.133,-9.766,-35.156,-43.457,0
1594927524.583,-38.574,-5.859,-31.738,-36.133,0
1594927524.587,-41.992,-5.371,-27.832,-36.133,0
1594927524.591,-34.668,-8.789,-26.855,-33.203,0
1594927524.595,-26.367,-4.883,-24.902,-31.250,0
1594927524.599,-26.855,-4.883,-20.996,-33.691,0
1594927524.602,-33.203,-9.766,-22.949,-33.691,0
1594927524.606,-35.645,-13.184,-27.344,-37.598,0
1594927524.610,-30.762,-12.695,-28.809,-33.203,0
1594927524.614,-26.855,-10.742,-20.020,-26.367,0
1594927524.618,-22.461,-9.766,-18.066,-27.344,0
1594927524.632,-17.578,-7.812,-18.555,-19.531,0
1594927524.636,-19.043,-9.766,-25.391,-20.508,0
1594927524.640,-21.973,-17.090,-28.320,-25.879,0
1594927524.644,-28.809,-10.742,-26.367,-36.133,0
1594927524.648,-38.086,-1.465,-31.250,-39.551,0
1594927524.652,-41.504,-12.207,-31.250,-41.992,0
1594927524.656,-46.875,-16.113,-35.156,-42.480,0
1594927524.659,-49.316,-10.254,-32.227,-35.645,0
1594927524.663,-49.805,-11.230,-32.715,-41.016,0
1594927524.667,-50.781,-14.160,-38.086,-42.969,0
1594927524.671,-42.969,-13.672,-35.645,-37.598,0
1594927524.675,-42.969,-17.578,-36.133,-30.762,0
1594927524.670,-45.410,-20.996,-34.668,-30.762,0
1594927524.674,-37.109,-21.484,-28.809,-32.715,0
1594927524.678,-30.273,-17.578,-23.438,-26.855,0
1594927524.682,-30.273,-16.113,-23.926,-22.949,0
1594927524.686,-30.762,-24.414,-27.344,-24.902,0
1594927524.690,-35.645,-25.879,-31.738,-27.344,0
1594927524.694,-40.527,-22.949,-32.227,-27.344,0
1594927524.697,-36.621,-20.996,-28.809,-30.762,0
1594927524.701,-25.391,-20.020,-32.715,-30.762,0
1594927524.705,-31.250,-23.438,-30.762,-30.273,0
1594927524.709,-32.715,-18.555,-20.508,-48.828,0
1594927524.713,-27.344,-10.254,-26.367,-52.246,0
1594927524.727,-34.180,-13.184,-30.762,-45.410,0
1594927524.731,-44.922,-20.508,-35.156,-48.340,0
1594927524.735,-49.805,-18.555,-42.969,-45.410,0
1594927524.739,-45.410,-19.531,-43.945,-42.480,0
1594927524.743,-43.945,-20.996,-49.805,-41.992,0
1594927524.747,-42.480,-20.996,-56.641,-38.574,0
1594927524.751,-50.293,-26.367,-57.617,-37.598,0
1594927524.754,-50.781,-22.949,-48.828,-42.480,0
1594927524.758,-35.645,-19.043,-37.598,-44.434,0
1594927524.762,-31.250,-18.555,-32.227,-35.645,0
1594927524.766,-40.527,-17.090,-33.203,-40.039,0
1594927524.770,-36.133,-22.949,-36.133,-42.969,0
1594927524.763,-21.484,-19.531,-29.785,-42.969,0
1594927524.767,-15.137,-11.719,-27.832,-42.969,0
1594927524.771,-12.207,-11.719,-22.461,-39.062,0
1594927524.775,-20.996,-15.137,-14.648,-31.250,0
1594927524.779,-38.086,-14.648,-14.648,-25.391,0
1594927524.783,-42.969,-14.160,-18.555,-22.461,0
1594927524.787,-48.828,-19.043,-18.555,-26.855,0
1594927524.790,-55.664,-21.484,-17.578,-35.645,0
1594927524.794,-56.641,-16.113,-19.043,-42.969,0
1594927524.798,-48.340,-15.137,-24.902,-41.016,0
1594927524.802,-46.875,-18.066,-23.438,-48.828,0
1594927524.806,-52.734,-19.531,-25.391,-55.176,0
1594927524.819,-42.969,-18.555,-28.320,-45.898,0
1594927524.823,-31.738,-17.578,-28.809,-41.504,0
1594927524.827,-23.926,-15.625,-27.832,-39.551,0
1594927524.831,-23.438,-19.043,-28.320,-36.621,0
1594927524.835,-28.809,-23.438,-32.227,-37.109,0
1594927524.839,-24.902,-19.531,-32.715,-37.598,0
1594927524.843,-22.949,-17.578,-32.227,-32.715,0
1594927524.846,-25.391,-19.043,-30.273,-29.785,0
1594927524.850,-27.832,-18.066,-29.785,-35.156,0
1594927524.854,-23.438,-17.090,-30.762,-34.180,0
1594927524.858,-29.297,-18.555,-34.668,-41.016,0
1594927524.862,-40.527,-19.531,-37.598,-45.898,0
1594927524.859,-45.898,-18.066,-35.645,-49.316,0
1594927524.863,-46.875,-20.996,-31.738,-47.363,0
1594927524.867,-39.062,-18.555,-29.297,-45.898,0
1594927524.871,-39.062,-17.090,-37.598,-45.898,0
1594927524.875,-41.992,-17.090,-41.992,-44.434,0
1594927524.879,-41.016,-19.043,-37.109,-45.898,0
1594927524.883,-39.062,-19.043,-40.527,-42.969,0
1594927524.886,-38.574,-16.602,-39.062,-41.992,0
1594927524.890,-32.715,-12.695,-37.109,-38.574,0
1594927524.894,-27.344,-9.766,-37.109,-30.762,0
1594927524.898,-17.090,-9.277,-31.250,-32.227,0
1594927524.902,-20.020,-10.742,-31.250,-36.133,0
1594927524.913,-20.996,-13.184,-35.645,-37.109,0
1594927524.917,-20.996,-12.695,-35.645,-37.598,0
1594927524.921,-24.902,-14.648,-29.297,-36.133,0
1594927524.925,-18.555,-9.766,-29.297,-39.062,0
1594927524.929,-21.973,-7.812,-36.133,-41.992,0
1594927524.933,-31.738,-16.602,-34.180,-43.945,0
1594927524.937,-34.180,-20.508,-32.715,-46.875,0
1594927524.940,-27.832,-12.207,-32.715,-40.527,0
1594927524.944,-34.180,-4.395,-28.320,-41.016,0
1594927524.948,-39.551,-8.301,-31.738,-48.340,0
1594927524.952,-44.922,-11.719,-30.762,-46.387,0
1594927524.956,-52.734,-14.648,-30.273,-44.922,0
1594927524.952,-46.387,-16.602,-29.785,-41.992,0
1594927524.956,-34.668,-14.160,-27.832,-37.109,0
1594927524.960,-31.738,-16.113,-28.320,-52.734,0
1594927524.964,-30.273,-17.090,-32.227,-53.711,0
1594927524.968,-28.320,-16.113,-32.715,-40.527,0
1594927524.972,-32.715,-16.113,-29.785,-47.363,0
1594927524.976,-30.273,-17.578,-28.809,-45.410,0
1594927524.979,-27.832,-10.254,-26.367,-42.480,0
1594927524.983,-28.809,-10.742,-31.250,-47.363,2
1594927524.987,-25.879,-18.555,-34.668,-41.504,0
1594927524.991,-26.855,-11.230,-30.273,-37.598,0
1594927524.995,-24.414,-9.277,-29.785,-41.016,0
1594927525.007,-28.320,-18.066,-33.203,-43.457,0
1594927525.011,-32.715,-21.973,-34.668,-36.621,0
1594927525.015,-35.645,-16.602,-33.691,-28.320,0
1594927525.019,-40.039,-14.160,-37.109,-37.598,0
1594927525.023,-42.480,-10.254,-40.527,-45.410,0
1594927525.027,-46.387,-6.836,-37.109,-46.387,0
1594927525.031,-51.758,-7.324,-38.086,-45.898,0
1594927525.034,-48.340,-4.883,-34.180,-42.969,0
1594927525.038,-41.504,-1.953,-29.297,-39.551,0
1594927525.042,-48.340,-5.371,-25.879,-36.133,0
1594927525.046,-47.363,-6.348,-24.414,-40.039,0
1594927525.050,-49.316,-3.418,-22.949,-43.457,0
1594927525.044,-42.480,-5.371,-23.438,-39.062,0
1594927525.048,-30.273,-7.324,-23.926,-27.832,0
1594927525.052,-40.039,-7.324,-20.508,-29.297,0
1594927525.056,-38.574,-9.277,-23.926,-36.621,0
1594927525.060,-36.621,-11.719,-26.367,-38.086,0
1594927525.064,-45.898,-11.230,-25.879,-38.086,0
1594927525.068,-37.109,-15.137,-21.973,-32.227,0
1594927525.071,-32.715,-16.602,-17.578,-34.668,0
1594927525.075,-39.551,-14.160,-20.020,-40.527,0
1594927525.079,-35.645,-19.531,-23.926,-37.109,0
1594927525.083,-31.738,-21.484,-22.949,-41.504,0
1594927525.087,-31.738,-20.996,-29.297,-42.969,0
1594927525.100,-31.738,-25.391,-29.297,-37.109,0
1594927525.104,-37.598,-25.391,-28.320,-33.691,0
1594927525.108,-32.715,-15.625,-24.902,-27.344,0
1594927525.112,-32.227,-8.301,-24.414,-27.832,0
1594927525.116,-42.480,-13.184,-30.273,-29.297,0
1594927525.120,-33.691,-15.625,-29.785,-35.645,0
1594927525.124,-25.391,-18.066,-34.668,-37.109,0
1594927525.127,-30.273,-18.066,-37.598,-30.762,0
1594927525.131,-29.297,-15.137,-31.738,-35.645,0
1594927525.135,-20.996,-20.508,-38.086,-37.109,0
1594927525.139,-18.555,-21.484,-41.504,-32.715,0
1594927525.143,-20.508,-19.531,-34.180,-30.273,0
1594927525.138,-29.785,-20.508,-31.250,-31.250,0
1594927525.142,-40.039,-25.391,-29.297,-35.156,0
1594927525.146,-38.086,-26.367,-35.156,-45.898,0
1594927525.150,-37.598,-18.066,-38.086,-47.852,0
1594927525.154,-33.203,-18.066,-32.227,-39.551,0
1594927525.158,-35.156,-19.043,-38.086,-41.992,0
1594927525.162,-41.016,-17.578,-33.203,-44.922,0
1594927525.165,-33.203,-23.438,-30.273,-49.805,0
1594927525.169,-32.715,-28.320,-36.133,-43.457,0
1594927525.173,-38.086,-27.832,-39.062,-36.621,0
1594927525.177,-44.434,-22.461,-41.504,-37.109,0
1594927525.181,-40.527,-21.484,-43.945,-40.527,0
1594927525.194,-32.715,-22.949,-42.969,-44.922,0
1594927525.198,-41.992,-22.461,-45.410,-41.504,0
1594927525.202,-48.828,-20.020,-41.992,-37.109,0
1594927525.206,-41.992,-18.555,-35.645,-44.434,0
1594927525.210,-36.621,-13.672,-33.691,-39.551,0
1594927525.214,-30.762,-13.672,-31.250,-30.762,0
1594927525.218,-31.250,-15.137,-33.203,-30.762,0
1594927525.221,-30.762,-13.184,-33.203,-33.203,0
1594927525.225,-29.785,-18.555,-35.156,-38.574,0
1594927525.229,-27.832,-23.926,-35.156,-34.668,0
1594927525.233,-25.391,-15.137,-34.668,-38.574,0
1594927525.237,-29.785,-10.254,-32.715,-41.016,0
1594927525.232,-28.809,-14.648,-35.156,-31.738,0
1594927525.236,-38.086,-21.484,-37.109,-37.109,0
1594927525.240,-37.109,-18.066,-33.691,-38.086,0
1594927525.244,-30.762,-14.648,-30.273,-31.250,0
1594927525.248,-24.902,-13.184,-27.344,-34.668,0
1594927525.252,-22.949,-13.672,-28.320,-37.598,0
1594927525.256,-32.715,-16.113,-30.762,-36.621,0
1594927525.259,-37.598,-16.113,-32.227,-37.109,0
1594927525.263,-40.039,-20.020,-39.062,-34.668,0
1594927525.267,-37.598,-17.090,-41.504,-33.203,0
1594927525.271,-33.203,-7.812,-33.691,-41.992,0
1594927525.275,-34.180,-6.348,-30.762,-38.574,0
1594927525.288,-41.992,-10.254,-30.273,-36.133,0
1594927525.292,-42.480,-13.672,-28.320,-33.691,0
1594927525.296,-39.062,-10.254,-27.344,-31.738,0
1594927525.300,-46.387,-7.812,-31.738,-42.480,0
1594927525.304,-51.758,-13.672,-36.621,-44.434,0
1594927525.308,-50.293,-9.277,-35.645,-46.387,0
1594927525.312,-44.922,-2.930,-36.621,-48.340,0
1594927525.315,-44.922,-4.395,-38.086,-41.504,0
1594927525.319,-46.875,-6.348,-30.762,-41.992,0
1594927525.323,-41.016,-12.207,-30.762,-36.621,0
1594927525.327,-47.363,-13.672,-35.645,-32.227,0
1594927525.331,-49.805,-22.461,-36.133,-31.250,0
1594927525.325,-34.668,-24.414,-37.109,-39.062,0
1594927525.329,-29.785,-17.090,-38.086,-55.176,0
1594927525.333,-28.809,-7.812,-35.645,-46.875,0
1594927525.337,-27.344,-9.766,-34.668,-36.621,0
1594927525.341,-39.551,-17.578,-26.855,-37.109,0
1594927525.345,-43.945,-14.648,-28.320,-44.434,0
1594927525.349,-38.086,-10.254,-26.855,-45.898,0
1594927525.352,-42.969,-14.160,-22.461,-35.645,0
1594927525.356,-48.340,-19.531,-34.668,-41.016,0
1594927525.360,-44.434,-20.508,-38.086,-48.828,0
1594927525.364,-41.016,-18.066,-28.809,-52.246,0
1594927525.368,-36.621,-17.090,-35.645,-46.875,0
1594927525.382,-38.086,-19.043,-26.367,-43.945,0
1594927525.386,-41.016,-20.020,-15.625,-36.621,0
1594927525.390,-44.434,-10.254,-21.484,-35.645,0
1594927525.394,-45.410,-6.836,-22.461,-36.133,0
1594927525.398,-47.852,-6.836,-23.926,-37.109,0
1594927525.402,-49.805,-6.836,-27.344,-41.992,0
1594927525.406,-42.480,-11.230,-24.414,-36.621,0
1594927525.409,-38.086,-10.742,-20.020,-37.598,0
1594927525.413,-44.434,-13.184,-24.902,-44.922,0
1594927525.417,-46.387,-14.160,-28.320,-41.992,0
1594927525.421,-37.598,-10.742,-28.809,-39.062,0
1594927525.425,-28.809,-9.766,-33.203,-40.527,0
1594927525.420,-31.738,-4.883,-29.297,-38.086,0
1594927525.424,-38.086,-5.371,-25.879,-38.086,0
1594927525.428,-41.016,-10.254,-29.785,-39.062,0
1594927525.432,-37.598,-12.207,-32.715,-35.156,0
1594927525.436,-30.273,-9.277,-37.598,-32.227,0
1594927525.440,-28.809,-9.766,-36.621,-29.297,0
1594927525.444,-27.344,-14.160,-31.738,-30.273,0
1594927525.447,-27.344,-18.066,-28.809,-31.738,0
1594927525.451,-32.227,-18.066,-30.273,-24.902,0
1594927525.455,-32.715,-18.555,-28.809,-22.949,0
1594927525.459,-31.738,-17.090,-28.320,-30.273,0
1594927525.463,-34.180,-15.137,-29.785,-34.180,0
1594927525.475,-34.668,-16.113,-28.320,-31.738,0
1594927525.479,-36.621,-17.578,-28.809,-31.738,0
1594927525.483,-40.527,-16.113,-27.344,-36.621,0
1594927525.487,-44.434,-20.508,-23.438,-45.898,0
1594927525.491,-44.922,-19.043,-20.020,-41.016,0
1594927525.495,-50.293,-20.996,-21.484,-39.551,0
1594927525.499,-49.316,-25.879,-25.879,-42.969,0
1594927525.502,-44.434,-22.461,-22.949,-34.668,0
1594927525.506,-40.527,-20.508,-16.113,-36.621,0
1594927525.510,-41.992,-25.391,-18.066,-37.598,0
1594927525.514,-49.316,-22.461,-21.973,-37.598,0
1594927525.518,-56.152,-16.602,-20.508,-40.527,0
1594927525.513,-51.270,-18.066,-20.020,-41.016,0
1594927525.517,-45.898,-19.531,-22.461,-38.086,0
1594927525.521,-46.875,-19.531,-24.414,-39.062,0
1594927525.525,-46.875,-18.555,-30.762,-41.504,0
1594927525.529,-41.992,-17.090,-31.250,-35.156,0
1594927525.533,-43.945,-18.555,-24.902,-31.738,0
1594927525.537,-45.898,-17.578,-26.367,-40.039,0
1594927525.540,-44.434,-17.578,-30.762,-44.922,0
1594927525.544,-49.805,-15.625,-38.574,-39.062,0
1594927525.548,-40.039,-7.812,-38.086,-34.180,0
1594927525.552,-35.645,-1.953,-28.320,-36.133,0
1594927525.556,-38.574,-3.418,-23.926,-41.016,0
1594927525.569,-41.016,-7.812,-26.367,-44.922,0
1594927525.573,-31.738,-8.301,-30.273,-44.434,0
1594927525.577,-27.344,-5.859,-19.531,-32.227,0
1594927525.581,-37.598,-7.812,-17.090,-27.832,0
1594927525.585,-34.180,-4.883,-28.809,-31.250,0
1594927525.589,-36.621,-6.836,-28.320,-32.715,0
1594927525.593,-46.387,-15.625,-32.227,-37.598,0
1594927525.596,-46.875,-14.648,-28.320,-36.621,0
1594927525.600,-48.340,-16.113,-27.344,-34.668,0
1594927525.604,-50.781,-19.043,-32.227,-35.156,0
1594927525.608,-45.898,-17.578,-27.832,-40.527,0
1594927525.612,-47.363,-13.672,-29.785,-41.992,0
1594927525.607,-52.246,-13.672,-32.227,-34.668,0
1594927525.611,-46.387,-15.625,-28.809,-34.668,0
1594927525.615,-40.039,-17.090,-26.367,-37.109,0
1594927525.619,-35.645,-17.090,-25.391,-28.320,0
1594927525.623,-34.180,-11.230,-23.438,-32.227,0
1594927525.627,-36.621,-11.230,-26.855,-41.016,0
1594927525.631,-25.391,-13.672,-23.438,-41.016,0
1594927525.634,-28.320,-11.230,-23.438,-54.688,0
1594927525.638,-38.574,-14.160,-30.273,-56.152,0
1594927525.642,-36.133,-14.648,-28.809,-36.133,0
1594927525.646,-41.016,-11.719,-26.367,-35.645,0
1594927525.650,-40.527,-12.695,-26.367,-33.691,0
1594927525.663,-40.039,-11.719,-26.855,-27.832,0
1594927525.667,-40.527,-18.066,-26.855,-30.273,0
1594927525.671,-41.504,-26.855,-31.250,-27.832,0
1594927525.675,-44.434,-23.926,-26.855,-33.203,0
1594927525.679,-48.828,-20.508,-32.227,-42.480,0
1594927525.683,-43.457,-21.484,-32.227,-44.434,0
1594927525.687,-36.133,-20.996,-27.344,-38.574,0
1594927525.690,-36.133,-16.113,-22.949,-33.691,0
1594927525.694,-33.691,-9.277,-23.438,-32.715,0
1594927525.698,-34.180,-10.742,-26.855,-35.156,0
1594927525.702,-39.551,-14.160,-22.461,-37.598,0
1594927525.706,-33.203,-12.695,-25.391,-33.203,0
1594927525.700,-27.344,-9.766,-27.344,-25.879,0
1594927525.704,-30.273,-6.348,-27.832,-26.855,0
1594927525.708,-35.645,-8.789,-30.273,-30.273,0
1594927525.712,-35.156,-8.789,-31.738,-26.367,0
1594927525.716,-32.715,-6.836,-29.297,-28.809,0
1594927525.720,-36.133,-13.672,-35.645,-44.922,0
1594927525.724,-38.086,-13.184,-33.691,-44.922,0
1594927525.727,-36.133,-7.812,-21.973,-37.598,0
1594927525.731,-28.320,-17.090,-25.879,-36.133,0
1594927525.735,-33.203,-24.902,-28.809,-31.738,0
1594927525.739,-39.062,-26.855,-22.461,-35.645,0
1594927525.743,-41.016,-25.879,-23.926,-49.805,0
1594927525.757,-37.598,-15.137,-24.902,-49.316,0
1594927525.761,-32.715,-9.766,-29.297,-41.016,0
1594927525.765,-29.785,-10.254,-28.809,-39.551,0
1594927525.769,-24.414,-16.602,-27.344,-37.109,0
1594927525.773,-30.273,-22.949,-35.156,-33.691,0
1594927525.777,-35.156,-27.344,-36.621,-34.180,0
1594927525.781,-34.668,-26.855,-39.062,-33.691,0
1594927525.784,-35.156,-25.391,-36.621,-36.133,0
1594927525.788,-36.133,-26.855,-28.320,-39.062,2
1594927525.792,-31.250,-26.367,-28.320,-34.668,0
1594927525.796,-33.691,-20.508,-29.297,-37.598,0
1594927525.800,-41.504,-18.555,-29.297,-31.250,0
1594927525.794,-32.715,-18.555,-24.414,-26.855,0
1594927525.798,-29.785,-20.508,-28.809,-32.227,0
1594927525.802,-40.039,-20.020,-33.691,-32.227,0
1594927525.806,-44.434,-18.066,-31.738,-34.668,0
1594927525.810,-45.898,-17.090,-31.738,-37.109,0
1594927525.814,-41.992,-14.648,-29.785,-33.203,0
1594927525.818,-41.504,-16.602,-24.414,-34.668,0
1594927525.821,-39.551,-16.602,-28.320,-42.969,0
1594927525.825,-38.574,-16.602,-30.273,-43.457,0
1594927525.829,-41.504,-19.043,-26.855,-41.016,0
1594927525.833,-40.527,-14.160,-25.391,-38.086,0
1594927525.837,-40.039,-11.719,-26.855,-36.621,0
1594927525.850,-45.410,-15.137,-28.320,-36.621,0
1594927525.854,-41.504,-17.578,-32.715,-32.227,0
1594927525.858,-30.273,-16.602,-29.785,-26.855,0
1594927525.862,-38.086,-10.742,-22.461,-28.809,0
1594927525.866,-43.457,-13.184,-22.949,-29.785,0
1594927525.870,-38.574,-16.113,-18.066,-30.762,0
1594927525.874,-41.016,-11.230,-17.090,-34.668,0
1594927525.877,-45.410,-11.230,-17.578,-42.480,0
1594927525.881,-48.340,-8.301,-19.043,-46.387,0
1594927525.885,-49.805,-4.883,-20.020,-42.480,0
1594927525.889,-45.898,-6.836,-23.926,-44.434,0
1594927525.893,-45.898,-7.812,-26.367,-42.969,0
1594927525.888,-41.992,-2.441,-19.043,-41.016,0
1594927525.892,-32.715,-6.348,-18.555,-25.879,0
1594927525.896,-32.227,-10.742,-21.484,-14.160,0
1594927525.900,-39.551,-8.301,-20.996,-29.297,0
1594927525.904,-46.387,-10.254,-16.113,-44.434,0
1594927525.908,-42.969,-13.672,-17.090,-37.109,0
1594927525.912,-47.852,-13.184,-22.949,-32.227,0
1594927525.915,-55.664,-11.719,-24.902,-41.992,0
1594927525.919,-50.293,-12.207,-28.809,-34.668,0
1594927525.923,-57.617,-16.113,-32.715,-32.227,0
1594927525.927,-52.246,-13.184,-27.832,-37.109,0
1594927525.931,-35.156,-12.207,-29.297,-34.668,0
1594927525.945,-38.086,-14.648,-30.762,-32.227,0
1594927525.949,-42.969,-20.996,-34.180,-33.203,0
1594927525.953,-43.457,-22.949,-35.645,-28.320,0
1594927525.957,-40.527,-21.484,-27.832,-31.738,0
1594927525.961,-30.273,-26.855,-25.391,-33.203,0
1594927525.965,-31.250,-24.902,-28.809,-30.762,0
1594927525.969,-38.574,-22.461,-28.809,-29.785,0
1594927525.972,-32.227,-20.996,-20.020,-27.344,0
1594927525.976,-29.297,-20.020,-22.461,-33.691,0
1594927525.980,-38.086,-18.066,-27.344,-30.273,0
1594927525.984,-35.156,-18.555,-24.902,-30.762,0
1594927525.988,-29.785,-15.625,-23.926,-37.598,0
1594927525.982,-27.832,-12.207,-27.344,-36.621,0
1594927525.986,-27.832,-12.695,-26.855,-31.738,0
1594927525.990,-37.109,-16.113,-23.438,-27.832,0
1594927525.994,-31.738,-18.555,-27.344,-34.180,0
1594927525.998,-37.109,-19.043,-32.227,-34.668,0
1594927526.002,-41.992,-20.508,-30.273,-30.273,0
1594927526.006,-39.062,-13.672,-27.832,-31.250,0
1594927526.009,-39.062,-8.301,-20.996,-23.438,0
1594927526.013,-36.621,-12.207,-25.391,-27.832,0
1594927526.017,-29.297,-19.531,-28.320,-33.691,0
1594927526.021,-34.668,-28.320,-16.113,-36.621,0
1594927526.025,-43.945,-25.879,-19.043,-41.992,0
1594927526.038,-33.691,-22.461,-24.902,-38.086,0
1594927526.042,-27.832,-26.855,-21.484,-35.156,0
1594927526.046,-39.551,-25.879,-21.484,-39.551,0
1594927526.050,-44.434,-20.508,-24.414,-37.109,0
1594927526.054,-43.457,-24.414,-25.879,-26.367,0
1594927526.058,-40.039,-27.344,-23.438,-26.855,0
1594927526.062,-37.109,-28.809,-27.344,-37.598,0
1594927526.065,-37.109,-21.973,-29.297,-43.945,0
1594927526.069,-40.527,-10.742,-24.902,-44.434,0
1594927526.073,-47.852,-10.254,-25.879,-46.387,0
1594927526.077,-43.945,-12.695,-28.809,-51.758,0
1594927526.081,-36.133,-13.184,-34.668,-49.316,0
1594927526.075,-39.551,-14.648,-31.250,-40.527,0
1594927526.079,-39.551,-18.555,-29.297,-39.551,0
1594927526.083,-44.922,-16.602,-29.785,-47.363,0
1594927526.087,-51.758,-17.578,-29.297,-42.480,0
1594927526.091,-51.758,-22.461,-32.227,-34.180,0
1594927526.095,-48.828,-21.973,-28.809,-32.715,0
1594927526.099,-48.340,-18.066,-25.879,-36.621,0
1594927526.102,-46.875,-13.184,-21.484,-46.875,0
1594927526.106,-47.363,-14.648,-22.949,-43.945,0
1594927526.110,-44.922,-18.066,-26.855,-37.598,0
1594927526.114,-35.156,-19.531,-25.879,-39.062,0
1594927526.118,-33.691,-20.996,-28.320,-40.039,0
1594927526.132,-32.715,-19.043,-26.367,-42.480,0
1594927526.136,-27.344,-20.996,-21.484,-39.062,0
1594927526.140,-25.879,-19.531,-16.602,-35.645,0
1594927526.144,-31.250,-12.207,-14.160,-39.551,0
1594927526.148,-28.809,-10.742,-18.066,-39.062,0
1594927526.152,-29.297,-11.719,-17.578,-32.227,0
1594927526.156,-29.297,-16.113,-23.926,-32.227,0
1594927526.159,-27.832,-18.066,-24.414,-36.133,0
1594927526.163,-31.250,-16.113,-18.066,-35.156,0
1594927526.167,-38.086,-20.020,-22.461,-34.668,0
1594927526.171,-39.062,-18.066,-25.391,-45.410,0
1594927526.175,-44.434,-18.555,-23.926,-47.852,0
1594927526.170,-50.293,-23.438,-21.484,-43.457,0
1594927526.174,-47.852,-26.367,-25.391,-48.828,0
1594927526.178,-51.270,-27.832,-29.785,-51.270,0
1594927526.182,-60.059,-28.809,-34.180,-57.129,0
1594927526.186,-48.340,-26.367,-33.691,-57.129,0
1594927526.190,-38.086,-26.855,-33.691,-52.246,0
1594927526.194,-37.598,-26.855,-32.715,-46.387,0
1594927526.197,-38.574,-21.973,-25.879,-41.504,0
1594927526.201,-41.016,-27.832,-35.156,-40.527,0
1594927526.205,-40.039,-29.297,-35.156,-42.969,0
1594927526.209,-43.945,-21.484,-26.367,-41.016,0
1594927526.213,-41.992,-19.531,-28.809,-32.715,0
1594927526.225,-32.715,-23.926,-25.879,-31.738,0
1594927526.229,-34.180,-26.367,-28.320,-37.598,0
1594927526.233,-46.387,-23.926,-30.762,-37.109,0
1594927526.237,-41.016,-24.414,-25.879,-35.645,0
1594927526.241,-32.715,-21.973,-22.461,-31.738,0
1594927526.245,-38.086,-18.066,-26.855,-29.785,0
1594927526.249,-35.645,-20.996,-30.273,-20.508,0
1594927526.252,-34.668,-20.508,-30.273,-19.531,0
1594927526.256,-35.156,-18.555,-29.785,-31.250,0
1594927526.260,-28.320,-14.160,-32.227,-38.574,0
1594927526.264,-30.762,-9.766,-33.203,-31.738,0
1594927526.268,-31.738,-9.277,-30.762,-33.203,0
1594927526.263,-35.645,-11.230,-26.855,-38.574,0
1594927526.267,-31.738,-8.789,-22.949,-31.250,0
1594927526.271,-27.344,-8.301,-20.996,-25.879,0
1594927526.275,-37.109,-11.719,-20.508,-30.273,0
1594927526.279,-42.480,-16.113,-19.043,-37.109,0
1594927526.283,-39.062,-10.254,-15.137,-30.273,0
1594927526.287,-30.762,-7.812,-16.602,-27.832,0
1594927526.290,-38.574,-18.555,-20.020,-42.480,0
1594927526.294,-41.016,-21.484,-25.391,-45.410,0
1594927526.298,-30.762,-14.160,-28.809,-31.738,0
1594927526.302,-39.062,-9.277,-20.996,-33.691,0
1594927526.306,-49.805,-11.719,-19.043,-38.574,0
1594927526.319,-52.734,-15.625,-23.926,-40.039,0
1594927526.323,-44.434,-20.508,-31.250,-44.434,0
1594927526.327,-33.691,-21.484,-26.855,-39.062,0
1594927526.331,-45.898,-17.578,-22.461,-39.551,0
1594927526.335,-51.758,-18.555,-21.484,-46.875,0
1594927526.339,-44.434,-21.973,-22.461,-47.852,0
1594927526.343,-46.387,-25.391,-29.297,-51.270,0
1594927526.346,-46.387,-18.066,-28.809,-50.781,0
1594927526.350,-41.016,-14.648,-29.785,-44.922,0
1594927526.354,-35.156,-15.137,-33.203,-45.410,0
1594927526.358,-34.668,-16.602,-26.855,-48.828,0
1594927526.362,-44.434,-21.484,-29.297,-44.922,0
1594927526.357,-38.574,-19.531,-31.738,-39.062,0
1594927526.361,-33.691,-19.043,-35.156,-35.156,0
1594927526.365,-31.738,-20.996,-36.621,-37.109,0
1594927526.369,-35.645,-22.949,-35.156,-43.457,0
1594927526.373,-41.016,-20.996,-35.156,-46.387,0
1594927526.377,-36.133,-11.230,-27.832,-44.434,0
1594927526.381,-37.598,-10.254,-22.949,-40.039,0
1594927526.384,-41.016,-13.672,-21.973,-41.016,0
1594927526.388,-42.480,-20.020,-28.320,-52.246,0
1594927526.392,-47.363,-21.973,-29.785,-46.875,0
1594927526.396,-44.922,-17.090,-21.973,-36.621,0
1594927526.400,-45.898,-20.020,-25.391,-37.598,0
1594927526.413,-46.387,-21.973,-34.180,-33.691,0
1594927526.417,-38.086,-28.320,-34.180,-24.414,0
1594927526.421,-39.062,-33.691,-30.762,-27.832,0
1594927526.425,-37.598,-25.391,-27.344,-40.527,0
1594927526.429,-37.598,-26.855,-32.715,-42.480,0
1594927526.433,-34.668,-24.902,-31.250,-39.062,0
1594927526.437,-31.250,-13.184,-26.367,-36.621,0
1594927526.440,-28.320,-11.230,-19.531,-33.203,0
1594927526.444,-31.250,-18.555,-18.066,-41.016,0
1594927526.448,-34.668,-24.414,-26.367,-46.387,0
1594927526.452,-35.156,-21.484,-29.297,-48.340,0
1594927526.456,-28.809,-17.578,-25.879,-46.387,0
1594927526.450,-17.578,-20.996,-21.484,-44.922,0
1594927526.454,-27.832,-26.855,-25.391,-48.340,0
1594927526.458,-31.738,-26.855,-29.785,-47.363,0
1594927526.462,-20.020,-20.996,-32.715,-50.293,0
1594927526.466,-17.090,-17.090,-34.180,-48.340,0
1594927526.470,-23.438,-11.719,-36.621,-37.598,0
1594927526.474,-20.996,-7.812,-39.551,-36.133,0
1594927526.477,-15.137,-7.812,-32.715,-44.434,0
1594927526.481,-8.789,-9.277,-29.785,-46.387,0
1594927526.485,-9.766,-18.066,-29.297,-45.898,0
1594927526.489,-18.066,-16.113,-22.949,-45.898,0
1594927526.493,-24.414,-13.672,-19.531,-41.992,0
1594927526.507,-31.250,-16.113,-18.066,-38.574,0
1594927526.511,-35.156,-18.066,-24.414,-30.762,0
1594927526.515,-45.898,-17.090,-26.855,-29.785,0
1594927526.519,-51.270,-17.090,-21.484,-31.738,0
1594927526.523,-51.270,-20.020,-20.996,-33.203,0
1594927526.527,-48.340,-22.949,-22.949,-32.227,0
1594927526.531,-46.875,-22.949,-26.855,-31.250,0
1594927526.534,-41.992,-15.625,-25.391,-23.926,0
1594927526.538,-34.668,-14.648,-16.602,-24.414,0
1594927526.542,-38.086,-14.648,-20.020,-36.621,0
1594927526.546,-38.574,-11.719,-25.391,-39.551,0
1594927526.550,-34.668,-11.719,-26.855,-37.109,0
1594927526.544,-28.809,-10.742,-29.297,-34.180,0
1594927526.548,-21.484,-6.836,-27.344,-30.273,0
1594927526.552,-26.367,-9.277,-25.879,-34.180,0
1594927526.556,-24.414,-11.230,-26.855,-34.180,0
1594927526.560,-18.555,-3.906,-27.344,-32.715,0
1594927526.564,-18.555,-6.836,-30.273,-37.109,0
1594927526.568,-19.043,-7.812,-27.832,-41.504,0
1594927526.571,-19.531,-4.883,-29.785,-42.969,0
1594927526.575,-28.809,-6.348,-30.273,-38.574,0
1594927526.579,-32.227,-9.766,-19.531,-38.086,0
1594927526.583,-36.133,-15.137,-18.555,-41.992,0
1594927526.587,-31.250,-20.508,-24.414,-45.898,0
1594927526.600,-27.832,-17.578,-26.367,-50.781,0
1594927526.604,-27.344,-15.137,-26.855,-42.969,0
1594927526.608,-28.809,-13.672,-23.926,-41.992,0
1594927526.612,-38.086,-11.230,-20.020,-43.457,0
1594927526.616,-31.738,-15.137,-20.508,-41.016,0
1594927526.620,-19.531,-11.719,-24.902,-40.527,0
1594927526.624,-19.531,-10.254,-24.902,-41.992,0
1594927526.627,-18.555,-8.789,-18.066,-39.551,0
1594927526.631,-28.809,-12.695,-20.508,-44.434,0
1594927526.635,-39.551,-24.414,-20.020,-47.363,0
1594927526.639,-28.320,-22.461,-21.484,-44.922,0
1594927526.643,-27.832,-19.531,-31.738,-56.152,0
1594927526.638,-35.645,-17.578,-32.227,-59.082,0
1594927526.642,-38.086,-16.602,-30.762,-45.898,0
1594927526.646,-32.715,-16.602,-23.926,-43.945,0
1594927526.650,-22.461,-16.602,-20.996,-44.922,0
1594927526.654,-21.484,-16.113,-24.414,-41.016,0
1594927526.658,-29.785,-15.625,-24.414,-38.086,1
1594927526.662,-28.320,-18.066,-22.949,-40.039,0
1594927526.665,-24.902,-21.484,-19.043,-35.156,0
1594927526.669,-26.367,-28.809,-23.926,-24.902,0
1594927526.673,-32.227,-20.020,-26.367,-24.414,0
1594927526.677,-35.156,-17.090,-23.926,-28.320,0
1594927526.681,-31.250,-16.113,-21.973,-30.273,0
1594927526.694,-28.809,-8.789,-22.949,-42.969,0
1594927526.698,-24.414,-9.766,-25.879,-40.039,0
1594927526.702,-26.367,-13.672,-25.391,-35.645,0
1594927526.706,-32.227,-13.672,-21.484,-37.598,0
1594927526.710,-27.344,-9.766,-20.020,-30.273,0
1594927526.714,-27.344,-10.742,-23.438,-33.691,0
1594927526.718,-33.691,-18.066,-28.320,-31.738,0
1594927526.721,-27.344,-16.602,-24.902,-27.344,0
1594927526.725,-25.879,-10.254,-20.020,-30.273,0
1594927526.729,-27.832,-12.207,-23.438,-33.203,0
1594927526.733,-24.902,-17.090,-23.438,-26.367,0
1594927526.737,-19.531,-14.160,-22.949,-27.832,0
1594927526.732,-23.926,-15.137,-23.926,-38.086,0
1594927526.736,-33.203,-21.484,-29.785,-37.109,0
1594927526.740,-29.785,-19.043,-29.297,-28.320,0
1594927526.744,-28.809,-17.090,-32.227,-26.367,0
1594927526.748,-27.832,-19.531,-30.762,-24.414,0
1594927526.752,-28.809,-18.555,-26.855,-28.320,0
1594927526.756,-25.879,-17.578,-31.250,-28.320,0
1594927526.759,-23.926,-20.020,-29.297,-29.785,0
1594927526.763,-30.762,-22.949,-28.320,-34.668,0
1594927526.767,-31.738,-26.367,-26.367,-36.133,0
1594927526.771,-29.297,-27.344,-25.879,-34.668,0
1594927526.775,-36.133,-27.832,-31.250,-37.109,0
1594927526.788,-38.574,-23.438,-28.809,-46.875,0
1594927526.792,-40.039,-23.926,-33.691,-47.852,0
1594927526.796,-35.156,-25.879,-34.180,-34.668,0
1594927526.800,-39.551,-17.090,-27.344,-38.574,0
1594927526.804,-46.875,-12.207,-28.320,-46.875,0
1594927526.808,-46.387,-14.160,-30.273,-44.922,0
1594927526.812,-38.086,-12.695,-42.480,-45.898,0
1594927526.815,-33.203,-12.207,-42.969,-43.945,0
1594927526.819,-38.574,-16.602,-35.645,-41.016,0
1594927526.823,-45.410,-22.461,-40.527,-45.898,0
1594927526.827,-45.898,-21.484,-41.016,-46.875,0
1594927526.831,-45.898,-19.043,-40.039,-37.109,0
1594927526.825,-47.363,-21.973,-39.551,-33.691,0
1594927526.829,-40.039,-20.508,-37.109,-33.691,0
1594927526.833,-42.480,-21.484,-32.715,-31.738,0
1594927526.837,-47.852,-24.902,-34.180,-37.598,0
1594927526.841,-37.598,-16.602,-35.645,-37.598,0
1594927526.845,-37.109,-11.719,-28.320,-36.133,0
1594927526.849,-41.504,-16.602,-28.320,-38.574,0
1594927526.852,-41.992,-24.902,-31.250,-33.691,0
1594927526.856,-49.805,-26.367,-31.250,-35.156,0
1594927526.860,-50.293,-21.973,-30.273,-33.203,0
1594927526.864,-42.969,-22.461,-28.809,-35.156,0
1594927526.868,-36.621,-21.484,-34.668,-44.922,0
1594927526.882,-36.621,-22.461,-34.668,-37.109,0
1594927526.886,-38.574,-25.879,-34.668,-38.574,0
1594927526.890,-32.227,-20.996,-35.156,-42.969,0
1594927526.894,-28.320,-17.578,-26.855,-33.203,0
1594927526.898,-29.297,-19.531,-28.809,-33.203,0
1594927526.902,-30.762,-16.602,-35.645,-39.551,0
1594927526.906,-21.973,-16.602,-31.250,-35.645,0
1594927526.909,-29.297,-14.648,-25.391,-33.691,0
1594927526.913,-43.945,-19.043,-28.320,-43.457,0
1594927526.917,-39.551,-13.184,-22.949,-38.086,0
1594927526.921,-25.879,-4.883,-15.625,-29.297,0
1594927526.925,-23.926,-6.348,-19.531,-33.691,0
1594927526.920,-33.691,-9.277,-19.043,-34.668,0
1594927526.924,-37.598,-13.184,-22.949,-24.414,0
1594927526.928,-41.992,-10.254,-29.785,-23.926,0
1594927526.932,-44.922,-10.742,-30.762,-28.320,0
1594927526.936,-28.320,-14.648,-28.320,-13.184,0
1594927526.940,-13.672,-12.207,-23.926,-7.324,0
1594927526.944,-15.625,-11.719,-25.391,-20.020,0
1594927526.947,-15.625,-17.090,-28.320,-21.484,0
1594927526.951,-18.066,-18.555,-32.715,-25.391,0
1594927526.955,-28.320,-26.367,-39.062,-31.250,0
1594927526.959,-27.832,-27.344,-39.551,-28.320,0
1594927526.963,-22.949,-23.438,-33.203,-38.086,0
1594927526.975,-20.508,-20.508,-32.715,-41.504,0
1594927526.979,-28.809,-20.020,-37.598,-37.109,0
1594927526.983,-26.367,-20.020,-30.273,-37.109,0
1594927526.987,-26.367,-19.531,-28.320,-36.621,0
1594927526.991,-43.457,-20.020,-31.250,-39.062,0
1594927526.995,-49.805,-17.090,-27.832,-41.016,0
1594927526.999,-52.734,-20.020,-27.344,-39.062,0
1594927527.002,-46.387,-18.555,-25.391,-46.387,0
1594927527.006,-44.922,-18.555,-21.973,-52.246,0
1594927527.010,-46.387,-26.855,-28.809,-51.758,0
1594927527.014,-45.898,-30.273,-30.762,-51.270,0
1594927527.018,-44.434,-30.762,-28.809,-52.734,0
1594927527.013,-40.527,-21.484,-30.762,-49.805,0
1594927527.017,-40.039,-17.578,-37.109,-45.898,0
1594927527.021,-46.387,-11.719,-36.133,-50.781,0
1594927527.025,-55.664,-14.160,-34.668,-52.734,0
1594927527.029,-54.688,-22.949,-39.551,-50.293,0
1594927527.033,-55.176,-19.043,-41.016,-51.270,0
1594927527.037,-51.270,-16.113,-36.621,-52.246,0
1594927527.040,-44.922,-15.625,-33.203,-49.316,0
1594927527.044,-44.434,-17.578,-28.320,-47.852,0
1594927527.048,-33.691,-18.066,-25.391,-41.504,0
1594927527.052,-32.715,-17.578,-25.879,-41.992,0
1594927527.056,-40.039,-17.090,-29.297,-47.363,0
1594927527.069,-38.086,-16.113,-32.227,-52.246,0
1594927527.073,-30.762,-20.020,-33.691,-43.945,0
1594927527.077,-32.227,-11.719,-28.809,-35.156,0
1594927527.081,-35.645,-6.348,-24.414,-33.203,0
1594927527.085,-36.621,-12.695,-30.273,-32.715,0
1594927527.089,-32.715,-15.137,-31.738,-33.691,0
1594927527.093,-28.809,-11.230,-24.414,-24.902,0
1594927527.096,-32.227,-8.789,-23.438,-15.625,0
1594927527.100,-28.809,-11.719,-23.926,-19.531,0
1594927527.104,-27.344,-17.090,-23.438,-28.320,0
1594927527.108,-31.250,-15.137,-29.785,-33.203,0
1594927527.112,-34.668,-12.695,-33.691,-28.809,0
1594927527.107,-41.992,-15.625,-33.691,-37.598,0
1594927527.111,-40.039,-13.672,-32.715,-47.852,0
1594927527.115,-41.504,-12.207,-34.180,-36.621,0
1594927527.119,-42.480,-16.602,-31.738,-37.598,0
1594927527.123,-40.039,-10.742,-31.738,-38.086,0
1594927527.127,-43.945,-7.812,-28.320,-31.250,0
1594927527.131,-43.457,-11.230,-25.879,-31.250,0
1594927527.134,-27.344,-11.230,-27.344,-31.250,0
1594927527.138,-21.484,-11.719,-28.809,-29.785,0
1594927527.142,-20.508,-10.254,-31.250,-28.320,0
1594927527.146,-20.996,-7.812,-28.320,-32.715,0
1594927527.150,-32.227,-11.719,-32.227,-41.992,0
1594927527.164,-33.203,-12.695,-27.832,-45.410,0
1594927527.168,-33.691,-14.648,-30.273,-40.527,0
1594927527.172,-38.574,-14.160,-34.668,-34.668,0
1594927527.176,-39.062,-7.324,-30.273,-39.551,0
1594927527.180,-37.109,-13.184,-31.250,-47.852,0
1594927527.184,-41.992,-18.555,-34.668,-53.711,0
1594927527.188,-38.086,-20.508,-37.598,-50.293,0
1594927527.191,-38.574,-18.066,-33.203,-47.363,0
1594927527.195,-45.898,-14.160,-30.273,-54.688,0
1594927527.199,-39.551,-17.090,-28.320,-43.945,0
1594927527.203,-43.457,-19.531,-27.344,-42.969,0
1594927527.207,-39.551,-20.020,-28.809,-58.105,0
1594927527.200,-29.785,-16.113,-27.832,-52.246,0
1594927527.204,-22.461,-11.719,-31.738,-39.551,0
1594927527.208,-21.484,-7.324,-40.039,-39.551,0
1594927527.212,-18.555,-4.395,-38.086,-35.156,0
1594927527.216,-20.020,-8.301,-31.250,-25.879,0
1594927527.220,-23.926,-10.254,-28.320,-24.414,0
1594927527.224,-20.020,-8.789,-31.738,-21.484,0
1594927527.227,-16.113,-15.137,-28.320,-21.973,0
1594927527.231,-18.066,-14.160,-28.320,-27.832,0
1594927527.235,-30.762,-18.066,-37.598,-36.621,0
1594927527.239,-39.062,-18.066,-43.457,-43.945,0
1594927527.243,-36.133,-17.578,-39.551,-47.852,0
1594927527.257,-40.039,-20.996,-35.645,-48.828,0
1594927527.261,-38.574,-24.414,-33.691,-41.504,0
1594927527.265,-38.086,-25.391,-35.645,-37.109,0
1594927527.269,-42.969,-16.602,-36.621,-42.480,0
1594927527.273,-33.203,-20.508,-35.156,-38.086,0
1594927527.277,-27.832,-15.137,-30.762,-24.902,0
1594927527.281,-44.922,-10.742,-32.227,-31.250,0
1594927527.284,-46.387,-11.719,-32.227,-33.691,0
1594927527.288,-41.992,-7.812,-24.902,-32.227,0
1594927527.292,-48.828,-11.719,-28.809,-41.016,0
1594927527.296,-50.781,-12.207,-37.109,-47.363,0
1594927527.300,-52.734,-12.207,-33.691,-38.574,0
1594927527.294,-53.223,-12.207,-26.855,-39.062,0
1594927527.298,-56.641,-14.160,-29.297,-41.016,0
1594927527.302,-58.594,-16.602,-29.785,-41.504,0
1594927527.306,-60.059,-22.461,-35.645,-41.992,0
1594927527.310,-56.152,-22.461,-38.574,-38.086,0
1594927527.314,-46.387,-20.508,-34.180,-36.133,0
1594927527.318,-48.340,-20.020,-37.109,-32.715,0
1594927527.321,-48.340,-19.531,-37.109,-32.227,0
1594927527.325,-44.922,-21.484,-38.086,-29.785,0
1594927527.329,-46.875,-22.949,-41.992,-29.297,0
1594927527.333,-41.016,-24.902,-36.133,-33.691,0
1594927527.337,-37.109,-30.273,-29.785,-34.180,0
1594927527.350,-33.203,-17.578,-31.250,-36.133,0
1594927527.354,-37.598,-19.043,-33.203,-31.738,0
1594927527.358,-42.480,-22.461,-30.762,-16.602,0
1594927527.362,-42.969,-8.789,-30.762,-26.855,0
1594927527.366,-38.574,-5.371,-32.227,-26.855,0
1594927527.370,-40.039,-13.672,-30.273,-28.809,0
1594927527.374,-41.992,-19.531,-32.715,-43.945,0
1594927527.377,-43.457,-21.484,-30.762,-40.039,0
1594927527.381,-45.898,-20.020,-28.320,-41.992,0
1594927527.385,-40.527,-19.043,-31.738,-47.363,0
1594927527.389,-38.086,-17.090,-30.762,-45.898,0
1594927527.393,-38.574,-13.184,-27.832,-37.109,0
1594927527.389,-35.645,-16.602,-26.367,-32.227,0
1594927527.393,-33.691,-20.508,-30.273,-29.785,1
1594927527.397,-42.480,-18.066,-30.273,-25.879,0
1594927527.401,-41.504,-18.555,-28.809,-24.902,0
1594927527.405,-46.387,-16.602,-31.250,-29.297,0
1594927527.409,-58.594,-15.137,-30.762,-32.715,0
1594927527.413,-55.176,-16.602,-31.738,-26.367,0
1594927527.416,-48.828,-17.090,-27.344,-30.273,0
1594927527.420,-47.852,-22.461,-36.621,-41.504,0
1594927527.424,-44.434,-23.926,-51.270,-37.109,0
1594927527.428,-42.480,-20.996,-41.016,-35.645,0
1594927527.432,-39.062,-17.090,-34.668,-37.598,0
1594927527.444,-37.598,-14.160,-34.668,-36.133,0
1594927527.448,-39.551,-11.230,-27.344,-29.297,0
1594927527.452,-41.016,-9.277,-23.438,-30.762,0
1594927527.456,-38.574,-10.254,-22.949,-32.715,0
1594927527.460,-30.762,-9.277,-21.484,-27.344,0
1594927527.464,-32.227,-11.230,-27.344,-34.180,0
1594927527.468,-36.621,-14.160,-30.762,-42.969,0
1594927527.471,-35.645,-16.602,-23.438,-41.016,0
1594927527.475,-31.250,-16.602,-20.020,-41.016,0
1594927527.479,-28.320,-13.672,-27.344,-40.039,0
1594927527.483,-36.621,-9.277,-30.273,-42.480,0
1594927527.487,-39.551,-11.230,-27.832,-50.781,0
1594927527.482,-35.156,-19.043,-23.438,-53.223,0
1594927527.486,-35.156,-17.578,-25.879,-50.293,0
1594927527.490,-37.109,-16.602,-23.926,-43.457,0
1594927527.494,-32.715,-20.020,-21.973,-37.109,0
1594927527.498,-36.133,-20.508,-20.996,-36.133,0
1594927527.502,-41.016,-23.926,-20.020,-37.109,0
1594927527.506,-33.691,-23.438,-24.414,-41.504,0
1594927527.509,-25.391,-15.137,-19.043,-32.715,0
1594927527.513,-25.391,-12.695,-18.066,-28.809,0
1594927527.517,-29.297,-10.742,-18.555,-32.227,0
1594927527.521,-23.438,-8.301,-14.160,-28.320,0
1594927527.525,-23.926,-7.812,-18.066,-28.320,0
1594927527.538,-32.715,-10.742,-27.344,-36.621,0
1594927527.542,-33.203,-17.090,-32.715,-34.180,0
1594927527.546,-28.809,-18.066,-32.227,-26.855,0
1594927527.550,-30.762,-18.066,-29.297,-31.250,0
1594927527.554,-34.180,-15.137,-28.809,-39.062,0
1594927527.558,-28.320,-13.672,-27.832,-38.574,0
1594927527.562,-27.832,-18.066,-27.832,-37.598,0
1594927527.565,-31.250,-18.066,-30.762,-36.621,0
1594927527.569,-32.715,-11.230,-28.320,-37.598,0
1594927527.573,-29.297,-10.254,-22.949,-39.062,0
1594927527.577,-30.762,-14.160,-22.461,-36.621,0
1594927527.581,-31.250,-16.602,-29.785,-37.598,0
1594927527.575,-33.691,-22.461,-35.645,-42.969,0
1594927527.579,-32.227,-20.508,-34.180,-45.410,0
1594927527.583,-36.621,-15.137,-29.785,-44.434,0
1594927527.587,-38.086,-19.531,-32.227,-47.852,0
1594927527.591,-29.297,-17.578,-32.715,-42.969,0
1594927527.595,-31.250,-15.137,-25.879,-41.504,0
1594927527.599,-23.438,-12.695,-27.344,-35.645,0
1594927527.602,-19.043,-14.160,-25.879,-31.738,0
1594927527.606,-25.879,-17.090,-28.809,-34.668,0
1594927527.610,-22.949,-20.996,-30.762,-31.738,0
1594927527.614,-20.020,-19.043,-23.926,-30.273,0
1594927527.618,-26.855,-16.113,-28.809,-38.574,0
1594927527.632,-20.996,-12.695,-29.785,-38.086,0
1594927527.636,-23.926,-11.230,-25.879,-31.250,0
1594927527.640,-40.527,-13.184,-26.367,-34.180,0
1594927527.644,-41.992,-12.207,-22.949,-40.527,0
1594927527.648,-40.527,-13.184,-26.367,-37.598,0
1594927527.652,-44.434,-18.555,-31.250,-41.016,0
1594927527.656,-39.062,-15.137,-29.785,-41.016,0
1594927527.659,-33.691,-11.230,-24.902,-33.691,0
1594927527.663,-41.016,-14.160,-26.855,-36.133,0
1594927527.667,-43.945,-15.625,-27.344,-34.668,0
1594927527.671,-39.551,-13.672,-24.414,-33.691,0
1594927527.675,-32.227,-13.672,-24.902,-34.668,0
1594927527.669,-28.809,-12.695,-28.320,-34.668,0
1594927527.673,-28.320,-16.113,-30.273,-36.621,0
1594927527.677,-37.598,-22.461,-26.367,-42.480,0
1594927527.681,-37.598,-24.902,-23.438,-41.504,0
1594927527.685,-34.668,-28.809,-22.461,-38.086,0
1594927527.689,-39.551,-22.949,-23.438,-41.992,0
1594927527.693,-43.945,-18.066,-21.973,-38.574,0
1594927527.696,-43.457,-23.926,-20.508,-38.574,0
1594927527.700,-37.598,-19.043,-24.902,-41.504,0
1594927527.704,-32.715,-16.113,-31.250,-34.668,0
1594927527.708,-38.086,-19.531,-32.715,-39.551,0
1594927527.712,-39.551,-18.555,-32.227,-41.992,0
1594927527.725,-41.016,-24.414,-30.762,-43.457,0
1594927527.729,-44.922,-27.832,-28.809,-36.133,0
1594927527.733,-43.457,-20.996,-28.809,-31.738,0
1594927527.737,-35.645,-21.973,-26.367,-34.668,0
1594927527.741,-34.180,-29.297,-29.785,-35.156,0
1594927527.745,-47.363,-25.391,-29.785,-41.992,0
1594927527.749,-53.223,-24.902,-29.297,-43.457,0
1594927527.752,-50.781,-23.926,-37.109,-40.527,0
1594927527.756,-45.898,-17.578,-34.180,-48.340,0
1594927527.760,-40.039,-16.602,-28.809,-52.246,0
1594927527.764,-44.434,-19.531,-36.133,-52.734,0
1594927527.768,-42.969,-20.996,-42.969,-52.734,0
1594927527.764,-34.668,-16.113,-40.527,-45.898,0
1594927527.768,-26.855,-9.766,-32.715,-48.828,0
1594927527.772,-23.926,-7.324,-27.344,-47.852,0
1594927527.776,-28.809,-7.812,-25.879,-41.504,0
1594927527.780,-33.691,-10.742,-25.879,-45.410,0
1594927527.784,-36.133,-9.766,-25.879,-50.781,0
1594927527.788,-37.598,-10.254,-27.344,-51.270,0
1594927527.791,-39.551,-17.578,-33.203,-48.828,0
1594927527.795,-41.016,-20.508,-39.062,-41.992,0
1594927527.799,-41.504,-21.484,-38.086,-35.645,0
1594927527.803,-39.551,-21.973,-28.320,-39.062,0
1594927527.807,-35.156,-16.113,-25.879,-41.016,0
1594927527.819,-43.945,-17.090,-25.879,-46.387,0
1594927527.823,-44.434,-21.484,-19.531,-43.945,0
1594927527.827,-41.016,-18.555,-22.461,-39.062,0
1594927527.831,-49.316,-18.555,-26.855,-43.457,0
1594927527.835,-62.988,-19.531,-25.391,-49.316,0
1594927527.839,-62.988,-21.484,-26.367,-48.828,0
1594927527.843,-54.199,-27.344,-28.320,-44.434,0
1594927527.846,-48.828,-24.414,-28.809,-38.574,0
1594927527.850,-51.758,-17.578,-28.809,-42.480,0
1594927527.854,-44.922,-17.090,-23.926,-39.551,0
1594927527.858,-44.434,-15.137,-23.438,-37.598,0
1594927527.862,-44.434,-11.230,-30.762,-34.668,0
1594927527.857,-33.691,-11.230,-30.273,-27.344,0
1594927527.861,-30.762,-8.301,-25.879,-23.438,0
1594927527.865,-28.320,-4.883,-27.344,-30.273,0
1594927527.869,-20.996,-7.812,-33.691,-36.133,0
1594927527.873,-14.648,-7.324,-30.273,-39.062,0
1594927527.877,-20.020,-8.301,-28.809,-42.480,0
1594927527.881,-24.902,-12.695,-30.273,-43.945,0
1594927527.884,-22.949,-13.184,-27.344,-38.086,0
1594927527.888,-34.180,-17.090,-31.250,-38.086,0
1594927527.892,-36.621,-18.555,-28.320,-38.574,0
1594927527.896,-39.551,-13.184,-22.461,-41.504,0
1594927527.900,-36.621,-11.230,-32.227,-38.086,0
1594927527.914,-33.203,-6.348,-33.691,-34.668,0
1594927527.918,-43.457,-13.184,-35.645,-41.504,0
1594927527.922,-41.992,-13.672,-34.668,-36.621,0
1594927527.926,-46.387,-6.348,-27.344,-36.133,0
1594927527.930,-44.434,-13.672,-29.297,-41.016,0
1594927527.934,-39.551,-19.043,-33.691,-38.574,0
1594927527.938,-36.133,-14.160,-32.715,-31.738,0
1594927527.941,-30.762,-13.672,-27.344,-33.203,0
1594927527.945,-29.785,-16.113,-31.250,-34.180,0
1594927527.949,-38.574,-13.672,-36.133,-33.691,0
1594927527.953,-47.363,-12.695,-30.273,-34.180,0
1594927527.957,-43.945,-14.160,-29.785,-34.668,0
1594927527.950,-40.527,-18.066,-30.273,-40.527,0
1594927527.954,-31.250,-17.090,-28.809,-36.621,0
1594927527.958,-30.762,-12.695,-34.180,-34.668,0
1594927527.962,-31.250,-10.254,-36.133,-39.062,0
1594927527.966,-27.832,-15.625,-34.180,-39.551,0
1594927527.970,-24.902,-20.020,-32.715,-41.504,0
1594927527.974,-18.555,-13.184,-30.762,-35.156,0
1594927527.977,-28.809,-19.043,-31.738,-36.133,0
1594927527.981,-33.203,-21.973,-34.668,-37.109,0
1594927527.985,-20.996,-15.137,-33.691,-30.762,0
1594927527.989,-35.156,-12.207,-28.809,-39.062,0
1594927527.993,-41.504,-13.184,-29.785,-41.504,0
1594927528.007,-32.715,-17.090,-27.832,-37.598,0
1594927528.011,-31.250,-21.484,-27.344,-40.527,0
1594927528.015,-41.992,-24.414,-21.973,-40.039,0
1594927528.019,-43.457,-17.578,-18.555,-37.109,0
1594927528.023,-42.969,-11.719,-21.973,-37.109,0
1594927528.027,-44.434,-12.207,-26.367,-47.363,0
1594927528.031,-32.715,-16.113,-28.809,-42.480,0
1594927528.034,-38.086,-14.648,-27.344,-36.621,0
1594927528.038,-46.387,-11.230,-22.461,-50.293,0
1594927528.042,-42.969,-12.695,-14.648,-50.293,0
1594927528.046,-44.434,-15.137,-17.578,-52.246,0
1594927528.050,-43.945,-19.043,-24.902,-51.758,0
1594927528.044,-37.109,-18.555,-23.926,-46.387,0
1594927528.048,-32.715,-18.555,-31.250,-51.270,0
1594927528.052,-30.273,-16.113,-27.344,-48.340,0
1594927528.056,-33.203,-14.648,-28.320,-41.016,0
1594927528.060,-35.156,-19.531,-35.156,-33.691,0
1594927528.064,-38.574,-17.578,-33.691,-35.645,0
1594927528.068,-41.016,-16.602,-35.645,-38.574,0
1594927528.071,-37.109,-17.090,-34.668,-35.645,0
1594927528.075,-30.762,-17.090,-36.133,-32.715,0
1594927528.079,-32.715,-21.484,-35.645,-33.203,0
1594927528.083,-37.598,-20.996,-27.832,-35.645,0
1594927528.087,-32.227,-14.160,-27.344,-39.551,0
1594927528.100,-38.086,-10.742,-25.879,-36.621,0
1594927528.104,-44.434,-20.020,-28.320,-35.645,0
1594927528.108,-35.645,-24.414,-33.203,-35.156,0
1594927528.112,-37.109,-16.602,-28.809,-37.598,0
1594927528.116,-37.598,-13.184,-28.809,-43.945,0
1594927528.120,-37.109,-13.184,-28.320,-50.293,0
1594927528.124,-35.156,-10.742,-28.809,-48.828,0
1594927528.127,-28.320,-7.324,-27.344,-45.898,0
1594927528.131,-34.668,-9.766,-25.879,-46.875,0
1594927528.135,-38.086,-15.137,-25.879,-46.875,0
1594927528.139,-34.180,-18.066,-26.367,-47.363,0
1594927528.143,-39.062,-17.090,-25.879,-50.781,0
1594927528.139,-40.527,-17.578,-33.691,-49.805,0
1594927528.143,-42.969,-24.902,-40.039,-49.316,0
1594927528.147,-41.016,-26.367,-27.832,-52.246,0
1594927528.151,-39.551,-27.344,-28.809,-46.387,0
1594927528.155,-41.992,-28.809,-37.598,-40.039,0
1594927528.159,-32.715,-22.949,-36.621,-46.387,0
1594927528.163,-30.273,-21.973,-28.320,-44.922,0
1594927528.166,-31.250,-25.879,-23.438,-40.527,0
1594927528.170,-28.809,-28.809,-27.344,-43.457,0
1594927528.174,-34.668,-24.414,-28.320,-35.156,0
1594927528.178,-33.203,-20.020,-23.438,-37.598,0
1594927528.182,-37.598,-20.508,-25.391,-42.480,0
1594927528.194,-42.480,-14.160,-28.320,-34.668,0
1594927528.198,-38.574,-17.090,-30.273,-40.527,0
1594927528.202,-35.156,-18.066,-24.414,-34.668,0
1594927528.206,-32.227,-10.742,-20.020,-26.367,0
1594927528.210,-34.668,-9.277,-21.484,-32.227,0
1594927528.214,-39.062,-17.090,-27.344,-43.945,0
1594927528.218,-45.898,-26.367,-34.180,-46.875,0
1594927528.221,-45.410,-22.461,-29.785,-35.156,0
1594927528.225,-49.805,-16.113,-20.996,-34.668,0
1594927528.229,-51.270,-15.137,-20.996,-35.156,1
1594927528.233,-48.828,-15.625,-27.344,-34.668,0
1594927528.237,-48.828,-18.066,-29.785,-42.969,0
1594927528.232,-49.805,-15.625,-24.902,-44.434,0
1594927528.236,-54.688,-17.090,-24.414,-40.527,0
1594927528.240,-55.176,-14.160,-28.809,-38.086,0
1594927528.244,-47.363,-13.672,-28.809,-43.945,0
1594927528.248,-42.969,-16.602,-29.297,-53.711,0
1594927528.252,-41.016,-14.648,-27.832,-53.223,0
1594927528.256,-36.133,-18.066,-25.391,-49.805,0
1594927528.259,-37.109,-14.648,-23.438,-41.992,0
1594927528.263,-40.527,-12.695,-29.297,-40.527,0
1594927528.267,-38.086,-17.578,-36.133,-37.109,0
1594927528.271,-28.809,-10.254,-30.273,-36.621,0
1594927528.275,-26.367,-10.742,-32.715,-52.246,0
1594927528.288,-28.320,-15.625,-37.109,-58.594,0
1594927528.292,-19.531,-15.625,-35.645,-53.223,0
1594927528.296,-19.043,-17.090,-35.156,-52.246,0
1594927528.300,-25.391,-16.602,-36.133,-56.641,0
1594927528.304,-28.320,-17.578,-33.691,-54.688,0
1594927528.308,-35.156,-19.531,-28.320,-47.852,0
1594927528.312,-39.551,-19.531,-28.809,-37.109,0
1594927528.315,-48.828,-18.066,-34.668,-32.227,0
1594927528.319,-51.270,-19.043,-32.227,-35.645,0
1594927528.323,-52.246,-20.996,-27.344,-33.691,0
1594927528.327,-45.898,-20.508,-26.855,-25.391,0
1594927528.331,-43.945,-19.531,-23.438,-22.949,0
1594927528.325,-55.664,-18.555,-24.414,-31.250,0
1594927528.329,-56.641,-19.531,-27.344,-35.645,0
1594927528.333,-47.852,-19.531,-26.855,-34.180,0
1594927528.337,-50.781,-23.926,-33.203,-35.645,0
1594927528.341,-61.523,-27.344,-41.504,-39.062,0
1594927528.345,-56.641,-19.531,-37.109,-38.574,0
1594927528.349,-50.781,-17.090,-38.086,-35.156,0
1594927528.352,-56.152,-20.508,-42.480,-37.109,0
1594927528.356,-51.758,-16.113,-40.039,-40.039,0
1594927528.360,-50.293,-16.113,-35.156,-40.039,0
1594927528.364,-52.246,-20.020,-29.785,-47.852,0
1594927528.368,-48.340,-20.508,-30.273,-41.992,0
1594927528.382,-44.434,-22.949,-32.715,-32.715,0
1594927528.386,-39.062,-19.043,-38.086,-30.762,0
1594927528.390,-37.598,-19.043,-32.227,-26.855,0
1594927528.394,-41.992,-21.484,-21.484,-31.250,0
1594927528.398,-44.922,-22.949,-33.203,-38.574,0
1594927528.402,-42.480,-21.973,-40.039,-39.551,0
1594927528.406,-41.016,-21.973,-35.645,-38.574,0
1594927528.409,-41.504,-18.066,-28.320,-34.180,0
1594927528.413,-41.016,-16.602,-27.832,-42.969,0
1594927528.417,-46.875,-21.484,-28.320,-52.246,0
1594927528.421,-50.293,-18.066,-29.297,-44.922,0
1594927528.425,-43.457,-18.066,-30.762,-39.551,0
1594927528.419,-46.875,-19.043,-27.344,-43.457,0
1594927528.423,-43.945,-17.090,-28.320,-38.086,0
1594927528.427,-41.504,-19.043,-25.879,-35.645,0
1594927528.431,-41.504,-21.484,-26.367,-39.062,0
1594927528.435,-39.551,-24.902,-30.273,-31.738,0
1594927528.439,-42.969,-23.438,-25.391,-31.738,0
1594927528.443,-44.922,-22.949,-25.879,-40.527,0
1594927528.446,-42.480,-20.996,-29.785,-40.039,0
1594927528.450,-41.504,-19.043,-28.320,-35.156,0
1594927528.454,-44.434,-20.020,-30.762,-29.297,0
1594927528.458,-37.109,-4.883,-30.273,-35.156,0
1594927528.462,-28.320,-3.906,-25.391,-34.180,0
1594927528.475,-24.902,-9.766,-24.414,-26.367,0
1594927528.479,-30.273,-18.555,-29.297,-25.879,0
1594927528.483,-34.668,-18.555,-32.227,-28.320,0
1594927528.487,-35.645,-15.625,-32.227,-37.109,0
1594927528.491,-35.156,-22.461,-29.785,-35.156,0
1594927528.495,-26.855,-16.602,-25.879,-31.738,0
1594927528.499,-23.438,-12.207,-26.855,-29.785,0
1594927528.502,-29.785,-17.578,-26.367,-30.273,0
1594927528.506,-29.297,-12.695,-22.949,-31.738,0
1594927528.510,-27.832,-8.301,-23.926,-35.645,0
1594927528.514,-35.645,-10.254,-27.344,-47.852,0
1594927528.518,-39.551,-12.695,-27.832,-45.410,0
1594927528.513,-37.109,-12.695,-22.949,-41.992,0
1594927528.517,-29.297,-11.230,-19.043,-47.363,0
1594927528.521,-27.832,-11.719,-21.973,-45.410,0
1594927528.525,-37.109,-15.137,-26.855,-46.875,0
1594927528.529,-39.551,-12.695,-19.531,-49.805,0
1594927528.533,-39.062,-13.184,-20.020,-42.969,0
1594927528.537,-44.434,-15.137,-27.832,-37.109,0
1594927528.540,-48.828,-10.742,-23.926,-37.598,0
1594927528.544,-44.922,-13.672,-23.926,-35.645,0
1594927528.548,-38.574,-22.461,-31.250,-34.180,0
1594927528.552,-46.875,-19.531,-28.809,-37.109,0
1594927528.556,-44.922,-20.508,-28.320,-38.574,0
1594927528.569,-41.504,-27.832,-32.715,-44.434,0
1594927528.573,-46.387,-35.156,-35.156,-46.387,0
1594927528.577,-48.340,-33.203,-33.691,-42.969,0
1594927528.581,-50.293,-27.344,-28.320,-45.898,0
1594927528.585,-41.504,-23.438,-26.855,-43.457,0
1594927528.589,-36.133,-17.090,-26.367,-32.227,0
1594927528.593,-38.086,-12.695,-24.414,-26.855,0
1594927528.596,-36.133,-15.625,-22.461,-34.668,0
1594927528.600,-34.180,-20.020,-17.090,-37.598,0
1594927528.604,-38.086,-21.484,-16.602,-42.480,0
1594927528.608,-36.621,-19.043,-19.043,-40.039,0
1594927528.612,-32.715,-13.184,-20.996,-29.785,0
1594927528.608,-39.551,-11.230,-18.555,-32.227,0
1594927528.612,-40.527,-14.648,-19.043,-37.598,0
1594927528.616,-37.598,-14.648,-19.531,-38.086,0
1594927528.620,-39.062,-11.719,-17.578,-37.598,0
1594927528.624,-45.898,-11.230,-19.043,-34.668,0
1594927528.628,-57.617,-12.695,-16.602,-40.527,0
1594927528.632,-54.688,-13.672,-13.672,-44.922,0
1594927528.635,-52.734,-10.254,-16.602,-42.969,0
1594927528.639,-49.316,-10.742,-23.438,-39.551,0
1594927528.643,-36.621,-13.184,-24.414,-32.227,0
1594927528.647,-38.086,-10.254,-21.484,-25.879,0
1594927528.651,-55.664,-15.137,-23.438,-31.250,0
1594927528.663,-54.688,-21.484,-29.297,-42.969,0
1594927528.667,-54.199,-22.461,-39.062,-50.293,0
1594927528.671,-60.547,-19.043,-39.062,-47.852,0
1594927528.675,-52.734,-14.648,-28.320,-43.945,0
1594927528.679,-47.363,-14.648,-28.809,-38.086,0
1594927528.683,-42.969,-17.090,-29.297,-37.109,0
1594927528.687,-39.062,-18.066,-27.344,-39.062,0
1594927528.690,-41.992,-19.531,-27.832,-35.645,0
1594927528.694,-42.480,-24.902,-24.414,-41.504,0
1594927528.698,-48.340,-26.855,-27.344,-48.828,0
1594927528.702,-44.922,-25.391,-31.250,-41.992,0
1594927528.706,-39.062,-26.855,-33.203,-38.574,0
1594927528.700,-41.992,-22.949,-32.227,-40.039,0
1594927528.704,-50.293,-18.555,-33.203,-34.668,0
1594927528.708,-44.434,-14.648,-39.062,-32.715,0
1594927528.712,-38.086,-11.230,-34.180,-40.039,0
1594927528.716,-50.781,-8.789,-27.832,-43.457,0
1594927528.720,-50.781,-8.789,-32.227,-41.992,0
1594927528.724,-41.504,-11.719,-31.250,-41.504,0
1594927528.727,-39.551,-8.789,-29.785,-38.574,0
1594927528.731,-38.574,-15.625,-47.363,-38.086,0
1594927528.735,-39.551,-16.602,-57.617,-36.133,0
1594927528.739,-38.574,-8.789,-54.688,-37.109,0
1594927528.743,-38.086,-11.230,-56.641,-38.574,0
1594927528.757,-36.621,-12.695,-47.363,-38.574,0
1594927528.761,-28.809,-14.160,-41.504,-34.180,0
1594927528.765,-30.762,-18.066,-36.133,-28.320,0
1594927528.769,-39.062,-14.160,-23.438,-30.762,0
1594927528.773,-44.922,-16.113,-27.344,-38.086,0
1594927528.777,-44.922,-20.996,-32.715,-44.922,0
1594927528.781,-41.016,-22.949,-34.180,-43.457,0
1594927528.784,-40.527,-24.414,-33.691,-39.062,0
1594927528.788,-47.852,-16.602,-31.250,-51.270,0
1594927528.792,-45.410,-12.695,-29.297,-52.246,0
1594927528.796,-42.480,-16.602,-26.855,-44.434,0
1594927528.800,-52.246,-17.578,-27.344,-45.898,0
1594927528.794,-50.781,-14.160,-22.461,-45.898,0
1594927528.798,-51.270,-14.160,-22.461,-45.898,0
1594927528.802,-48.828,-14.648,-22.461,-43.945,0
1594927528.806,-49.805,-18.066,-21.484,-44.922,0
1594927528.810,-54.688,-20.508,-25.391,-42.480,0
1594927528.814,-45.898,-20.508,-20.996,-42.480,0
1594927528.818,-40.039,-20.996,-14.648,-45.410,0
1594927528.821,-40.039,-20.508,-18.555,-42.969,0
1594927528.825,-41.504,-18.066,-25.391,-41.504,0
1594927528.829,-35.645,-20.020,-27.832,-40.527,0
1594927528.833,-30.273,-19.531,-22.949,-41.992,0
1594927528.837,-41.504,-16.113,-25.879,-47.852,0
1594927528.850,-49.805,-13.184,-31.250,-53.711,0
1594927528.854,-46.875,-14.648,-33.691,-51.758,0
1594927528.858,-41.504,-17.090,-33.691,-43.457,0
1594927528.862,-37.598,-14.648,-31.250,-37.598,0
1594927528.866,-34.668,-11.719,-30.762,-35.156,0
1594927528.870,-36.621,-7.812,-27.832,-36.621,0
1594927528.874,-40.527,-6.836,-20.020,-34.668,0
1594927528.877,-43.945,-10.254,-16.602,-38.574,0
1594927528.881,-38.086,-10.742,-20.020,-46.387,0
1594927528.885,-34.668,-10.254,-20.996,-45.410,0
1594927528.889,-40.527,-15.137,-15.625,-52.734,0
1594927528.893,-37.598,-22.949,-18.066,-48.828,0
1594927528.889,-39.062,-21.973,-23.438,-43.945,0
1594927528.893,-44.922,-18.066,-24.414,-48.340,0
1594927528.897,-44.434,-21.484,-26.855,-46.875,0
1594927528.901,-47.363,-25.879,-29.785,-41.504,0
1594927528.905,-45.410,-27.344,-29.785,-36.621,0
1594927528.909,-48.828,-23.438,-29.785,-35.645,0
1594927528.913,-48.828,-23.926,-32.715,-40.039,0
1594927528.916,-47.363,-24.414,-32.227,-43.945,0
1594927528.920,-49.316,-24.902,-35.156,-37.598,0
1594927528.924,-44.922,-32.227,-37.109,-36.621,0
1594927528.928,-45.410,-32.227,-35.156,-41.992,0
1594927528.932,-41.504,-27.344,-35.156,-40.527,0
1594927528.944,-30.762,-27.344,-35.645,-40.039,0
1594927528.948,-33.203,-31.738,-37.109,-41.504,0
1594927528.952,-46.387,-29.785,-36.133,-35.156,0
1594927528.956,-48.340,-26.367,-33.203,-38.574,0
1594927528.960,-46.387,-25.391,-32.715,-35.645,0
1594927528.964,-43.945,-23.438,-30.273,-36.621,0
1594927528.968,-40.527,-25.879,-27.344,-44.434,0
1594927528.971,-41.016,-23.438,-30.762,-37.109,0
1594927528.975,-41.016,-14.648,-29.297,-42.480,0
1594927528.979,-36.133,-15.625,-31.250,-46.387,0
1594927528.983,-36.133,-21.484,-32.227,-41.504,0
1594927528.987,-33.691,-16.602,-31.738,-49.805,0
1594927528.982,-34.668,-9.766,-23.438,-46.387,0
1594927528.986,-31.738,-13.672,-17.578,-38.086,0
1594927528.990,-28.809,-13.672,-19.043,-38.086,0
1594927528.994,-37.598,-13.184,-20.996,-36.621,0
1594927528.998,-35.156,-13.672,-18.555,-33.691,0
1594927529.002,-34.668,-11.719,-19.531,-32.227,0
1594927529.006,-37.109,-9.766,-23.438,-35.645,0
1594927529.009,-39.551,-10.254,-20.508,-33.691,0
1594927529.013,-42.969,-13.184,-18.555,-33.691,0
1594927529.017,-38.086,-10.742,-23.438,-38.086,0
1594927529.021,-36.133,-9.277,-24.414,-40.527,0
1594927529.025,-32.227,-12.207,-20.020,-39.062,0
1594927529.038,-32.715,-15.137,-21.484,-36.133,2
1594927529.042,-36.133,-20.020,-29.785,-32.715,0
1594927529.046,-36.133,-22.949,-32.715,-37.598,0
1594927529.050,-38.574,-25.879,-32.227,-46.875,0
1594927529.054,-39.551,-26.855,-30.762,-40.527,0
1594927529.058,-34.180,-23.438,-28.809,-33.203,0
1594927529.062,-32.227,-25.879,-28.809,-35.645,0
1594927529.065,-36.133,-30.273,-25.391,-37.109,0
1594927529.069,-37.109,-31.738,-24.414,-45.410,0
1594927529.073,-38.574,-30.273,-27.832,-53.711,0
1594927529.077,-33.691,-23.926,-30.762,-47.363,0
1594927529.081,-33.203,-26.367,-30.273,-44.434,0
1594927529.075,-32.227,-29.785,-31.250,-47.363,0
1594927529.079,-27.344,-25.879,-32.227,-45.410,0
1594927529.083,-29.297,-25.391,-34.180,-46.875,0
1594927529.087,-38.086,-28.320,-38.574,-49.316,0
1594927529.091,-32.227,-31.250,-36.133,-47.363,0
1594927529.095,-22.461,-30.762,-34.180,-44.922,0
1594927529.099,-17.578,-25.879,-32.715,-47.363,0
1594927529.102,-21.484,-21.973,-31.250,-42.969,0
1594927529.106,-29.785,-25.879,-39.062,-37.598,0
1594927529.110,-33.691,-34.180,-38.574,-37.109,0
1594927529.114,-35.645,-29.785,-33.203,-40.527,0
1594927529.118,-33.203,-30.762,-38.086,-39.551,0
1594927529.132,-33.203,-31.250,-39.062,-46.875,0
1594927529.136,-25.879,-21.484,-35.156,-43.945,0
1594927529.140,-16.602,-15.137,-32.715,-35.645,0
1594927529.144,-15.625,-10.742,-25.879,-40.039,0
1594927529.148,-16.113,-12.695,-25.879,-41.016,0
1594927529.152,-22.949,-12.695,-27.832,-40.039,0
1594927529.156,-31.738,-6.836,-26.367,-36.621,0
1594927529.159,-31.250,-3.906,-20.020,-23.438,0
1594927529.163,-33.203,-2.930,-14.160,-26.367,0
1594927529.167,-41.016,-8.301,-19.531,-35.156,0
1594927529.171,-38.086,-10.254,-23.926,-34.668,0
1594927529.175,-34.668,-5.859,-25.391,-32.715,0
1594927529.169,-36.621,-10.254,-27.832,-32.715,0
1594927529.173,-39.062,-15.625,-26.367,-38.086,0
1594927529.177,-42.969,-14.160,-21.973,-43.945,0
1594927529.181,-36.621,-16.113,-22.461,-40.039,0
1594927529.185,-36.621,-18.066,-24.902,-37.109,0
1594927529.189,-45.898,-18.066,-21.973,-36.621,0
1594927529.193,-42.969,-21.484,-21.484,-41.992,0
1594927529.196,-40.527,-25.391,-21.484,-49.316,0
1594927529.200,-42.480,-24.902,-22.949,-43.945,0
1594927529.204,-38.086,-20.508,-29.297,-38.086,0
1594927529.208,-39.062,-15.625,-23.926,-41.016,0
1594927529.212,-39.062,-18.066,-25.879,-38.574,0
1594927529.225,-36.133,-20.996,-26.367,-38.086,0
1594927529.229,-26.855,-20.020,-21.973,-36.133,0
1594927529.233,-23.438,-21.973,-21.484,-37.598,0
1594927529.237,-24.902,-18.555,-17.090,-38.574,0
1594927529.241,-28.320,-18.555,-18.066,-35.156,0
1594927529.245,-32.715,-24.902,-23.438,-35.645,0
1594927529.249,-31.738,-27.344,-32.227,-35.156,0
1594927529.252,-27.832,-23.926,-29.785,-28.809,0
1594927529.256,-29.785,-18.555,-22.949,-35.645,0
1594927529.260,-28.320,-15.137,-24.902,-40.039,0
1594927529.264,-33.691,-13.184,-30.273,-38.086,0
1594927529.268,-31.738,-11.719,-31.250,-31.738,0
1594927529.263,-22.949,-10.742,-23.926,-25.391,0
1594927529.267,-29.785,-13.672,-22.461,-36.133,0
1594927529.271,-31.738,-14.648,-28.320,-37.598,0
1594927529.275,-30.273,-12.695,-28.320,-31.250,0
1594927529.279,-35.645,-15.625,-28.809,-30.273,0
1594927529.283,-37.598,-23.438,-27.832,-32.715,0
1594927529.287,-30.273,-25.391,-29.297,-39.062,0
1594927529.290,-30.273,-20.020,-30.762,-44.434,0
1594927529.294,-33.203,-16.113,-28.809,-41.016,0
1594927529.298,-29.785,-20.508,-31.250,-33.203,0
1594927529.302,-35.645,-20.508,-30.273,-42.480,0
1594927529.306,-41.016,-17.090,-27.344,-48.828,0
1594927529.319,-37.109,-15.625,-20.508,-41.504,0
1594927529.323,-32.715,-14.648,-22.461,-38.574,0
1594927529.327,-30.273,-18.066,-27.344,-31.738,0
1594927529.331,-35.156,-19.531,-23.438,-30.762,0
1594927529.335,-35.156,-12.695,-16.602,-38.086,0
1594927529.339,-34.180,-11.230,-19.531,-38.574,0
1594927529.343,-31.738,-20.020,-25.391,-35.156,0
1594927529.346,-33.691,-20.508,-26.855,-36.133,0
1594927529.350,-37.109,-17.578,-24.902,-35.645,0
1594927529.354,-35.645,-19.531,-23.926,-32.715,0
1594927529.358,-43.945,-13.672,-22.461,-30.273,0
1594927529.362,-43.457,-10.742,-21.973,-31.738,0
1594927529.358,-38.574,-12.695,-23.438,-36.133,0
1594927529.362,-36.133,-12.207,-22.949,-38.574,0
1594927529.366,-42.480,-12.207,-23.926,-44.434,0
1594927529.370,-44.922,-15.625,-25.879,-37.109,0
1594927529.374,-37.109,-20.020,-29.785,-31.250,0
1594927529.378,-38.086,-21.484,-28.320,-43.457,0
1594927529.382,-35.645,-22.949,-25.391,-48.340,0
1594927529.385,-34.668,-20.996,-22.461,-48.340,0
1594927529.389,-31.250,-22.949,-22.949,-45.898,0
1594927529.393,-31.738,-20.996,-24.902,-35.156,0
1594927529.397,-35.645,-20.508,-19.043,-33.691,0
1594927529.401,-31.738,-26.367,-17.090,-36.133,0
1594927529.413,-26.855,-30.273,-11.719,-36.133,0
1594927529.417,-29.785,-31.250,-18.555,-44.434,0
1594927529.421,-29.297,-31.250,-24.902,-45.898,0
1594927529.425,-27.832,-35.156,-22.949,-42.480,0
1594927529.429,-37.598,-31.250,-28.809,-41.992,0
1594927529.433,-37.109,-26.855,-32.227,-35.645,0
1594927529.437,-23.926,-24.902,-30.762,-31.738,0
1594927529.440,-21.973,-20.020,-28.320,-31.250,0
1594927529.444,-26.367,-22.949,-28.809,-36.133,0
1594927529.448,-29.785,-22.461,-29.297,-43.945,0
1594927529.452,-35.645,-22.949,-33.203,-43.945,0
1594927529.456,-38.574,-23.438,-32.227,-42.480,0
1594927529.450,-32.715,-20.996,-27.832,-36.133,0
1594927529.454,-28.809,-14.160,-30.762,-34.180,0
1594927529.458,-28.809,-9.766,-24.902,-32.715,0
1594927529.462,-22.949,-11.230,-23.438,-26.367,0
1594927529.466,-16.113,-13.672,-31.738,-25.391,0
1594927529.470,-16.113,-18.555,-27.832,-26.367,0
1594927529.474,-13.672,-17.578,-21.973,-26.855,0
1594927529.477,-16.602,-19.043,-20.996,-28.809,0
1594927529.481,-24.414,-28.320,-20.996,-30.273,0
1594927529.485,-22.949,-28.320,-23.926,-22.949,0
1594927529.489,-36.133,-19.531,-20.508,-23.926,0
1594927529.493,-42.480,-21.484,-19.531,-33.691,0
1594927529.507,-39.551,-27.344,-26.367,-38.086,0
1594927529.511,-33.203,-23.926,-28.320,-32.227,0
1594927529.515,-30.273,-18.066,-28.320,-26.855,0
1594927529.519,-30.762,-18.066,-28.320,-36.133,0
1594927529.523,-18.555,-22.461,-23.926,-38.086,0
1594927529.527,-17.578,-18.066,-21.484,-32.715,0
1594927529.531,-33.691,-24.414,-27.344,-34.668,0
1594927529.534,-34.668,-26.855,-23.926,-31.250,0
1594927529.538,-33.203,-18.555,-18.555,-31.250,0
1594927529.542,-42.969,-24.414,-27.832,-42.480,0
1594927529.546,-43.457,-26.367,-35.645,-49.805,0
1594927529.550,-39.062,-22.461,-39.551,-46.875,0
1594927529.544,-39.551,-20.020,-31.738,-37.598,0
1594927529.548,-42.969,-19.531,-28.809,-40.527,0
1594927529.552,-42.480,-20.020,-29.297,-51.270,0
1594927529.556,-46.387,-20.996,-31.738,-48.340,0
1594927529.560,-50.781,-21.973,-33.203,-51.270,0
1594927529.564,-43.457,-24.414,-30.762,-55.176,0
1594927529.568,-34.668,-27.832,-26.367,-49.805,0
1594927529.571,-38.574,-22.461,-24.902,-42.480,0
1594927529.575,-42.969,-21.973,-34.668,-42.480,0
1594927529.579,-32.715,-24.902,-43.457,-44.434,0
1594927529.583,-25.391,-20.508,-41.016,-47.363,0
1594927529.587,-33.691,-24.414,-41.016,-49.316,0
1594927529.600,-34.180,-26.855,-41.504,-46.875,0
1594927529.604,-40.527,-23.438,-37.598,-48.828,0
1594927529.608,-43.945,-24.902,-41.992,-39.551,0
1594927529.612,-40.527,-25.879,-41.504,-41.016,0
1594927529.616,-41.016,-20.996,-37.109,-44.434,0
1594927529.620,-35.645,-19.043,-37.109,-41.016,0
1594927529.624,-37.109,-25.391,-41.016,-50.781,0
1594927529.627,-44.922,-20.020,-34.668,-49.805,0
1594927529.631,-45.898,-12.207,-31.738,-52.734,0
1594927529.635,-39.551,-19.531,-39.062,-56.641,0
1594927529.639,-34.180,-22.461,-35.645,-51.758,0
1594927529.643,-38.574,-24.902,-37.598,-43.945,0
1594927529.638,-48.828,-23.438,-41.016,-44.922,0
1594927529.642,-41.992,-18.066,-35.645,-43.945,0
1594927529.646,-29.785,-20.996,-29.297,-39.062,0
1594927529.650,-36.133,-20.996,-26.855,-37.109,0
1594927529.654,-33.691,-24.902,-28.809,-36.133,0
1594927529.658,-30.762,-25.879,-33.203,-40.527,0
1594927529.662,-43.457,-18.066,-31.738,-52.734,0
1594927529.665,-41.992,-15.137,-28.320,-52.734,0
1594927529.669,-40.039,-21.973,-26.367,-40.039,0
1594927529.673,-36.133,-28.809,-21.973,-32.227,0
1594927529.677,-30.762,-21.973,-16.602,-29.785,0
1594927529.681,-31.738,-21.973,-22.461,-30.762,0
1594927529.694,-30.762,-20.996,-22.949,-25.391,0
1594927529.698,-30.762,-17.090,-23.438,-23.438,0
1594927529.702,-36.133,-26.855,-27.344,-28.809,0
1594927529.706,-38.086,-27.832,-27.832,-35.156,0
1594927529.710,-38.574,-24.414,-27.344,-34.668,0
1594927529.714,-35.645,-20.020,-24.902,-33.691,0
1594927529.718,-27.344,-20.020,-29.785,-31.250,0
1594927529.721,-31.738,-22.949,-33.203,-33.691,0
1594927529.725,-40.527,-17.090,-26.855,-36.621,0
1594927529.729,-42.480,-16.602,-25.391,-41.504,0
1594927529.733,-49.316,-18.066,-24.902,-41.016,0
1594927529.737,-51.270,-16.113,-23.926,-40.039,0
1594927529.732,-45.898,-16.113,-24.902,-44.434,0
1594927529.736,-36.133,-16.602,-22.461,-39.551,0
1594927529.740,-30.762,-14.160,-21.973,-35.156,0
1594927529.744,-39.062,-11.719,-24.902,-39.551,0
1594927529.748,-47.363,-15.625,-27.832,-41.016,0
1594927529.752,-41.992,-13.184,-25.879,-40.527,0
1594927529.756,-36.133,-10.254,-21.484,-36.133,0
1594927529.759,-50.293,-12.207,-25.391,-35.156,0
1594927529.763,-46.875,-9.277,-28.320,-34.668,0
1594927529.767,-38.574,-10.254,-29.785,-31.250,0
1594927529.771,-46.387,-15.137,-28.320,-36.133,0
1594927529.775,-41.504,-14.648,-31.738,-35.156,0
1594927529.788,-36.621,-11.719,-31.738,-35.645,0
1594927529.792,-35.645,-17.578,-33.691,-39.551,0
1594927529.796,-36.621,-17.090,-31.738,-33.691,0
1594927529.800,-33.203,-6.348,-25.879,-28.809,0
1594927529.804,-32.715,-5.371,-26.367,-26.855,0
1594927529.808,-40.527,-12.207,-27.344,-32.227,0
1594927529.812,-45.410,-19.043,-31.738,-32.227,0
1594927529.815,-47.363,-15.625,-28.809,-29.785,0
1594927529.819,-37.109,-14.160,-18.555,-32.715,0
1594927529.823,-27.344,-17.578,-16.602,-31.250,0
1594927529.827,-27.344,-21.484,-24.414,-30.273,0
1594927529.831,-29.785,-22.461,-32.715,-31.738,0
1594927529.825,-33.691,-19.531,-25.879,-34.668,0
1594927529.829,-28.809,-15.625,-25.391,-27.344,0
1594927529.833,-27.344,-17.578,-23.926,-22.461,0
1594927529.837,-32.227,-17.090,-21.484,-26.367,2
1594927529.841,-37.598,-16.602,-25.391,-18.555,0
1594927529.845,-44.434,-21.484,-28.320,-22.949,0
1594927529.849,-38.574,-24.414,-30.273,-34.180,0
1594927529.852,-39.062,-16.113,-30.762,-36.133,0
1594927529.856,-41.016,-18.555,-33.691,-32.227,0
1594927529.860,-33.203,-20.020,-32.227,-22.461,0
1594927529.864,-34.180,-12.207,-26.367,-25.879,0
1594927529.868,-32.715,-18.555,-29.785,-30.273,0
1594927529.883,-32.227,-21.484,-32.715,-35.156,0
1594927529.887,-38.086,-26.367,-33.203,-39.062,0
1594927529.891,-28.320,-32.715,-35.645,-26.855,0
1594927529.895,-26.855,-31.250,-29.785,-26.367,0
1594927529.899,-35.156,-25.391,-31.250,-36.133,0
1594927529.903,-38.086,-30.273,-34.668,-38.086,0
1594927529.907,-41.016,-32.227,-29.297,-33.691,0
1594927529.910,-33.203,-21.484,-21.484,-29.297,0
1594927529.914,-26.855,-18.555,-22.461,-32.715,0
1594927529.918,-29.297,-24.902,-34.180,-31.738,0
1594927529.922,-29.785,-25.879,-38.574,-32.227,0
1594927529.926,-24.902,-23.438,-39.062,-29.785,0
1594927529.938,-14.648,-19.531,-36.133,-28.320,0
1594927529.942,-29.785,-21.973,-36.621,-38.574,0
1594927529.946,-45.410,-27.832,-43.945,-51.270,0
1594927529.950,-36.621,-28.320,-43.457,-51.758,0
1594927529.954,-42.969,-23.926,-40.039,-48.340,0
1594927529.958,-43.945,-19.043,-33.203,-48.828,0
1594927529.962,-39.062,-21.973,-31.250,-50.293,0
1594927529.965,-40.039,-21.484,-32.227,-44.922,0
1594927529.969,-32.715,-22.461,-28.809,-42.480,0
1594927529.973,-33.691,-25.879,-35.645,-44.434,0
1594927529.977,-39.062,-26.855,-39.551,-44.922,0
1594927529.981,-36.133,-28.320,-36.621,-40.527,0
1594927529.975,-30.762,-25.391,-33.691,-36.621,0
1594927529.979,-26.855,-22.949,-31.738,-35.156,0
1594927529.983,-31.250,-26.367,-35.156,-32.227,0
1594927529.987,-40.039,-28.809,-41.016,-38.574,0
1594927529.991,-33.203,-23.438,-34.180,-43.457,0
1594927529.995,-29.297,-19.043,-32.715,-45.898,0
1594927529.999,-25.391,-15.625,-38.574,-53.223,0
1594927530.002,-15.625,-10.742,-34.668,-43.945,0
1594927530.006,-21.973,-12.207,-31.250,-40.039,0
1594927530.010,-35.645,-18.066,-33.203,-44.434,0
1594927530.014,-43.945,-22.461,-34.668,-35.645,0
1594927530.018,-41.504,-23.926,-35.156,-26.855,0
1594927530.013,-46.875,-25.879,-30.273,-23.926,0
1594927530.017,-48.340,-25.879,-25.391,-32.227,0
1594927530.021,-39.551,-26.367,-30.762,-37.109,0
1594927530.025,-44.434,-28.320,-35.645,-32.227,0
1594927530.029,-52.734,-32.227,-33.203,-31.250,0
1594927530.033,-52.734,-33.203,-28.809,-42.480,0
1594927530.037,-48.828,-28.320,-28.809,-45.410,0
1594927530.040,-45.410,-24.414,-26.367,-39.062,0
1594927530.044,-47.363,-28.320,-32.227,-41.504,0
1594927530.048,-37.598,-36.133,-38.574,-38.086,0
1594927530.052,-35.645,-31.250,-30.273,-34.668,0
1594927530.056,-42.480,-25.391,-30.762,-36.621,0
1594927530.069,-41.504,-28.320,-27.832,-38.574,0
1594927530.073,-31.250,-27.344,-20.020,-26.855,0
1594927530.077,-34.668,-28.809,-21.973,-18.555,0
1594927530.081,-48.828,-33.691,-24.414,-32.227,0
1594927530.085,-45.898,-28.809,-32.227,-36.621,0
1594927530.089,-37.598,-24.414,-38.086,-38.086,0
1594927530.093,-35.645,-25.879,-40.527,-36.621,0
1594927530.096,-40.039,-23.438,-41.504,-41.992,0
1594927530.100,-46.875,-22.461,-40.039,-49.805,0
1594927530.104,-46.875,-24.902,-39.551,-42.969,0
1594927530.108,-41.992,-21.484,-36.133,-37.109,0
1594927530.112,-36.621,-18.555,-29.785,-31.250,0
1594927530.108,-35.645,-24.414,-26.855,-36.621,0
1594927530.112,-38.086,-28.809,-33.203,-37.598,0
1594927530.116,-35.645,-27.344,-37.109,-34.180,0
1594927530.120,-29.297,-22.461,-30.273,-35.156,0
1594927530.124,-33.203,-20.508,-30.762,-29.785,0
1594927530.128,-37.598,-15.625,-35.645,-32.715,0
1594927530.132,-41.504,-14.648,-33.203,-39.551,0
1594927530.135,-48.340,-21.484,-30.762,-41.992,0
1594927530.139,-43.457,-21.973,-35.156,-42.969,0
1594927530.143,-33.203,-24.902,-42.969,-37.109,0
1594927530.147,-39.062,-28.320,-40.039,-38.086,0
1594927530.151,-43.457,-22.949,-38.086,-40.527,0
1594927530.163,-37.109,-20.020,-35.645,-39.551,0
1594927530.167,-33.691,-18.066,-35.645,-34.180,0
1594927530.171,-32.715,-13.672,-35.645,-36.621,0
1594927530.175,-34.180,-12.207,-32.715,-40.039,0
1594927530.179,-37.598,-14.648,-31.738,-36.621,0
1594927530.183,-37.598,-18.066,-27.832,-35.645,0
1594927530.187,-36.621,-21.973,-30.762,-32.715,0
1594927530.190,-34.668,-13.672,-32.715,-25.879,0
1594927530.194,-31.738,-15.625,-29.785,-33.691,0
1594927530.198,-33.203,-24.414,-27.344,-37.109,0
1594927530.202,-35.645,-21.973,-36.133,-41.016,0
1594927530.206,-32.715,-20.996,-37.598,-53.223,0
1594927530.200,-37.109,-20.020,-32.715,-47.363,0
1594927530.204,-33.691,-20.996,-36.621,-43.457,0
1594927530.208,-25.391,-24.414,-34.668,-46.875,0
1594927530.212,-34.180,-27.832,-30.273,-51.270,0
1594927530.216,-37.109,-24.902,-24.902,-43.457,0
1594927530.220,-35.645,-18.555,-23.438,-34.668,0
1594927530.224,-34.180,-16.113,-28.809,-38.086,0
1594927530.227,-28.320,-12.695,-28.809,-36.133,0
1594927530.231,-29.297,-11.719,-29.297,-29.297,0
1594927530.235,-30.762,-19.531,-33.203,-27.344,0
1594927530.239,-28.320,-22.949,-28.809,-37.109,0
1594927530.243,-30.762,-30.273,-29.785,-45.410,0
1594927530.257,-33.203,-30.762,-30.273,-46.387,0
1594927530.261,-26.367,-25.879,-32.715,-43.945,0
1594927530.265,-31.738,-25.391,-33.203,-31.738,0
1594927530.269,-39.062,-17.090,-28.320,-34.668,0
1594927530.273,-37.109,-17.090,-28.809,-35.156,0
1594927530.277,-38.574,-25.879,-26.855,-36.133,0
1594927530.281,-42.969,-26.855,-27.344,-40.039,0
1594927530.284,-36.621,-22.949,-30.762,-36.621,0
1594927530.288,-33.691,-19.531,-23.438,-43.457,0
1594927530.292,-35.156,-21.973,-20.508,-49.316,0
1594927530.296,-40.039,-24.902,-23.926,-48.340,0
1594927530.300,-44.922,-23.926,-33.203,-47.852,0
1594927530.294,-51.758,-25.879,-36.133,-42.969,0
1594927530.298,-50.293,-28.809,-30.273,-44.434,0
1594927530.302,-33.691,-24.902,-24.414,-37.109,0
1594927530.306,-29.297,-18.066,-22.949,-34.180,0
1594927530.310,-27.832,-19.531,-27.832,-32.715,0
1594927530.314,-29.297,-24.414,-28.809,-24.902,0
1594927530.318,-27.832,-23.926,-27.832,-29.297,0
1594927530.321,-26.367,-27.344,-26.367,-31.250,0
1594927530.325,-30.273,-27.832,-27.832,-27.344,0
1594927530.329,-28.320,-28.320,-34.668,-33.203,0
1594927530.333,-27.832,-24.414,-30.762,-43.945,0
1594927530.337,-33.691,-14.648,-26.367,-37.109,0
1594927530.350,-37.598,-16.113,-33.691,-37.598,0
1594927530.354,-35.645,-19.043,-36.621,-40.039,0
1594927530.358,-39.551,-15.625,-34.668,-33.691,0
1594927530.362,-41.016,-16.113,-30.273,-35.645,0
1594927530.366,-38.574,-15.137,-31.250,-40.039,0
1594927530.370,-36.621,-12.695,-34.668,-43.945,0
1594927530.374,-33.203,-13.672,-35.156,-41.016,0
1594927530.377,-37.598,-19.531,-28.809,-41.504,0
1594927530.381,-31.250,-20.020,-25.391,-47.852,0
1594927530.385,-22.949,-18.066,-26.367,-41.504,0
1594927530.389,-23.926,-19.531,-21.973,-35.156,0
1594927530.393,-22.461,-23.926,-26.855,-34.668,0
1594927530.388,-22.949,-21.484,-27.344,-44.434,0
1594927530.392,-30.273,-20.020,-29.297,-45.410,0
1594927530.396,-33.691,-27.344,-29.785,-42.480,0
1594927530.400,-35.645,-22.461,-29.785,-44.922,0
1594927530.404,-42.969,-17.578,-33.691,-42.969,0
1594927530.408,-43.945,-22.949,-33.203,-51.758,0
1594927530.412,-38.574,-18.555,-30.762,-53.223,0
1594927530.415,-38.086,-18.066,-28.320,-46.387,0
1594927530.419,-41.992,-18.066,-26.367,-45.410,0
1594927530.423,-49.805,-13.672,-28.320,-40.527,0
1594927530.427,-54.199,-21.484,-29.297,-39.062,0
1594927530.431,-53.223,-32.227,-25.879,-40.527,0
1594927530.444,-56.152,-18.066,-24.414,-42.969,0
1594927530.448,-52.734,-12.207,-26.855,-44.922,0
1594927530.452,-45.410,-19.043,-30.273,-41.504,0
1594927530.456,-42.969,-12.695,-28.809,-41.504,0
1594927530.460,-36.621,-13.184,-26.855,-52.246,0
1594927530.464,-35.645,-20.020,-31.738,-56.152,0
1594927530.468,-33.203,-23.926,-36.133,-44.922,0
1594927530.471,-29.297,-17.090,-32.715,-39.551,0
1594927530.475,-31.738,-11.230,-27.832,-40.527,0
1594927530.479,-31.250,-18.066,-30.762,-40.039,0
1594927530.483,-33.203,-20.020,-31.250,-41.016,0
1594927530.487,-32.227,-15.137,-30.273,-34.180,0
1594927530.482,-28.320,-13.672,-29.785,-37.109,0
1594927530.486,-23.926,-18.066,-26.855,-38.574,0
1594927530.490,-24.414,-25.391,-27.832,-35.645,0
1594927530.494,-32.227,-24.414,-28.320,-35.645,0
1594927530.498,-39.551,-17.578,-24.902,-36.133,0
1594927530.502,-40.527,-20.020,-25.391,-42.969,0
1594927530.506,-39.551,-27.832,-26.855,-51.758,0
1594927530.509,-53.711,-26.367,-27.832,-49.805,0
1594927530.513,-57.129,-17.090,-25.391,-49.805,0
1594927530.517,-57.617,-18.555,-29.297,-44.434,0
1594927530.521,-58.594,-19.043,-35.645,-47.363,0
1594927530.525,-44.434,-18.555,-38.086,-60.059,0
1594927530.539,-44.922,-20.996,-35.156,-55.176,0
1594927530.543,-46.387,-20.508,-31.738,-42.969,0
1594927530.547,-39.551,-21.484,-30.762,-38.574,0
1594927530.551,-39.551,-24.414,-22.949,-40.039,0
1594927530.555,-33.203,-19.043,-22.949,-39.551,0
1594927530.559,-29.297,-15.137,-25.879,-38.086,0
1594927530.563,-29.785,-20.020,-22.461,-34.180,0
1594927530.566,-28.320,-24.414,-21.973,-29.785,0
1594927530.570,-28.320,-23.438,-20.508,-37.598,0
1594927530.574,-33.203,-23.926,-23.926,-38.574,0
1594927530.578,-33.691,-27.832,-26.367,-33.691,0
1594927530.582,-27.344,-35.645,-27.832,-38.574,0
1594927530.577,-29.297,-38.574,-24.902,-47.363,0
1594927530.581,-32.227,-35.645,-24.414,-42.969,0
1594927530.585,-27.832,-27.832,-23.438,-42.480,0
1594927530.589,-31.250,-26.855,-27.344,-49.805,0
1594927530.593,-38.086,-30.273,-32.715,-50.781,0
1594927530.597,-32.227,-24.414,-30.762,-47.852,0
1594927530.601,-36.621,-25.391,-30.273,-46.875,0
1594927530.604,-41.504,-20.508,-29.297,-49.805,0
1594927530.608,-38.086,-22.461,-28.809,-54.199,0
1594927530.612,-42.480,-28.320,-26.367,-45.410,0
1594927530.616,-33.691,-20.020,-17.090,-42.480,0
1594927530.620,-23.438,-12.695,-12.695,-47.363,0
1594927530.632,-27.344,-13.184,-16.113,-40.527,0
1594927530.636,-25.391,-15.137,-22.461,-34.180,0
1594927530.640,-27.344,-19.043,-22.461,-33.203,0
1594927530.644,-30.762,-21.973,-20.508,-33.203,0
1594927530.648,-27.344,-15.625,-19.043,-31.250,0
1594927530.652,-37.598,-14.648,-19.043,-32.227,0
1594927530.656,-32.227,-20.508,-20.996,-33.203,0
1594927530.659,-30.273,-18.555,-20.020,-31.250,0
1594927530.663,-50.781,-16.113,-18.066,-40.039,0
1594927530.667,-48.340,-20.996,-20.020,-41.504,0
1594927530.671,-33.691,-16.602,-17.578,-35.156,0
1594927530.675,-35.156,-15.625,-24.414,-38.574,0
1594927530.669,-30.273,-16.113,-25.879,-39.062,0
1594927530.673,-35.645,-21.973,-24.414,-41.016,0
1594927530.677,-42.969,-24.414,-27.832,-46.875,0
1594927530.681,-43.945,-21.484,-28.320,-49.805,0
1594927530.685,-41.504,-21.973,-31.738,-50.293,0
1594927530.689,-36.133,-21.973,-31.738,-47.363,0
1594927530.693,-40.527,-21.484,-32.227,-45.898,0
1594927530.696,-40.527,-21.484,-30.273,-46.875,0
1594927530.700,-36.621,-25.391,-28.320,-47.363,0
1594927530.704,-42.969,-27.832,-32.715,-47.852,0
1594927530.708,-45.898,-27.344,-32.227,-49.805,0
1594927530.712,-40.527,-27.832,-27.832,-47.363,0
1594927530.725,-33.203,-21.484,-29.297,-51.758,2
1594927530.729,-42.969,-20.020,-32.715,-46.875,0
1594927530.733,-49.805,-22.461,-37.109,-43.457,0
1594927530.737,-46.875,-20.020,-36.133,-46.387,0
1594927530.741,-46.875,-24.902,-31.250,-41.504,0
1594927530.745,-45.898,-25.879,-30.762,-41.016,0
1594927530.749,-44.434,-20.020,-31.250,-38.086,0
1594927530.752,-34.668,-15.625,-29.297,-30.273,0
1594927530.756,-27.832,-18.066,-35.156,-39.551,0
1594927530.760,-24.902,-18.066,-30.762,-46.387,0
1594927530.764,-16.602,-18.555,-28.809,-44.434,0
1594927530.768,-19.531,-20.996,-34.180,-36.621,0
1594927530.763,-23.438,-14.160,-33.203,-31.250,0
1594927530.767,-19.531,-12.207,-28.320,-30.762,0
1594927530.771,-18.555,-16.113,-27.344,-27.344,0
1594927530.775,-18.555,-17.090,-31.250,-22.461,0
1594927530.779,-19.043,-15.137,-32.715,-22.949,0
1594927530.783,-31.250,-20.996,-32.715,-32.227,0
1594927530.787,-38.574,-24.414,-28.320,-37.598,0
1594927530.790,-36.621,-22.949,-26.855,-36.621,0
1594927530.794,-33.691,-25.391,-31.738,-35.156,0
1594927530.798,-31.250,-20.996,-29.785,-29.297,0
1594927530.802,-33.203,-12.695,-25.391,-28.809,0
1594927530.806,-34.180,-14.648,-24.902,-33.203,0
1594927530.819,-34.668,-16.602,-25.879,-39.551,0
1594927530.823,-34.668,-16.602,-25.879,-38.086,0
1594927530.827,-32.227,-19.531,-31.250,-37.598,0
1594927530.831,-28.320,-20.508,-30.762,-46.387,0
1594927530.835,-28.320,-23.438,-30.273,-53.223,0
1594927530.839,-23.926,-25.879,-31.250,-53.711,0
1594927530.843,-19.531,-22.949,-30.273,-47.363,0
1594927530.846,-19.531,-17.090,-33.691,-39.062,0
1594927530.850,-31.250,-14.160,-27.344,-39.551,0
1594927530.854,-36.621,-15.625,-21.484,-36.133,0
1594927530.858,-27.344,-15.137,-25.391,-27.832,0
1594927530.862,-26.367,-15.625,-28.320,-22.461,0
1594927530.876,-41.992,-20.996,-28.320,-23.438,0
1594927530.880,-46.387,-24.414,-30.273,-27.344,0
1594927530.884,-36.621,-25.879,-29.785,-33.203,0
1594927530.888,-34.180,-25.879,-33.203,-35.156,0
1594927530.892,-36.621,-23.926,-38.574,-31.738,0
1594927530.896,-41.992,-22.949,-36.621,-38.574,0
1594927530.900,-44.434,-24.414,-35.156,-41.016,0
1594927530.903,-41.992,-23.438,-29.297,-33.203,0
1594927530.907,-41.016,-26.367,-26.367,-38.574,0
1594927530.911,-47.363,-29.785,-27.344,-38.574,0
1594927530.915,-43.945,-18.066,-20.020,-35.645,0
1594927530.919,-29.297,-11.719,-26.367,-33.691,0
1594927530.913,-33.691,-14.160,-31.738,-36.133,0
1594927530.917,-41.992,-20.020,-34.180,-42.969,0
1594927530.921,-44.434,-24.414,-36.621,-38.574,0
1594927530.925,-38.086,-18.066,-36.621,-37.598,0
1594927530.929,-35.156,-18.555,-44.434,-40.527,0
1594927530.933,-44.922,-21.973,-43.945,-41.992,0
1594927530.937,-43.457,-20.508,-38.574,-40.039,0
1594927530.940,-32.715,-17.578,-30.273,-38.086,0
1594927530.944,-27.344,-16.602,-28.320,-44.434,0
1594927530.948,-28.320,-20.996,-34.668,-47.363,0
1594927530.952,-27.832,-21.484,-33.203,-41.992,0
1594927530.956,-25.879,-16.113,-32.227,-39.062,0
1594927530.950,-22.949,-21.973,-31.250,-38.574,0
1594927530.954,-23.926,-20.020,-24.902,-40.527,0
1594927530.958,-25.391,-17.090,-28.320,-36.621,0
1594927530.962,-24.414,-23.926,-32.715,-30.762,0
1594927530.966,-26.855,-24.902,-34.180,-32.715,0
1594927530.970,-35.645,-26.367,-35.645,-33.203,0
1594927530.974,-37.598,-29.785,-36.133,-33.691,0
1594927530.977,-37.598,-24.902,-35.156,-39.062,0
1594927530.981,-37.598,-27.832,-35.645,-41.016,0
1594927530.985,-26.367,-31.250,-35.156,-37.109,0
1594927530.989,-27.832,-23.926,-25.391,-33.203,0
1594927530.993,-27.344,-20.508,-21.973,-29.785,0
1594927531.007,-25.391,-24.414,-23.438,-33.691,0
1594927531.011,-24.902,-22.949,-26.855,-39.551,0
1594927531.015,-30.762,-20.996,-30.273,-36.133,0
1594927531.019,-35.645,-22.949,-30.762,-40.039,0
1594927531.023,-35.645,-23.438,-34.180,-45.898,0
1594927531.027,-35.645,-23.438,-29.785,-46.875,0
1594927531.031,-34.668,-24.414,-32.227,-46.387,0
1594927531.034,-31.738,-27.344,-41.016,-43.457,0
1594927531.038,-34.180,-20.996,-36.133,-46.875,0
1594927531.042,-40.039,-21.484,-28.809,-41.992,0
1594927531.046,-34.180,-21.484,-23.926,-37.109,0
1594927531.050,-27.344,-22.461,-25.879,-34.180,0
1594927531.044,-36.133,-27.344,-23.438,-34.668,0
1594927531.048,-45.410,-14.648,-20.508,-45.898,0
1594927531.052,-36.621,-11.230,-21.484,-52.734,0
1594927531.056,-38.574,-21.973,-28.320,-48.340,0
1594927531.060,-36.133,-23.438,-35.156,-52.246,0
1594927531.064,-30.273,-19.043,-35.645,-46.875,0
1594927531.068,-37.598,-19.043,-32.227,-46.387,0
1594927531.071,-35.156,-15.625,-25.879,-47.852,0
1594927531.075,-42.969,-17.578,-22.949,-44.922,0
1594927531.079,-47.363,-23.438,-27.344,-41.992,0
1594927531.083,-44.922,-18.066,-26.855,-39.551,0
1594927531.087,-49.316,-18.555,-20.996,-41.504,0
1594927531.101,-43.457,-20.996,-25.879,-41.992,0
1594927531.105,-37.109,-20.996,-32.715,-40.039,0
1594927531.109,-31.250,-22.461,-31.738,-28.809,0
1594927531.113,-27.344,-21.484,-24.902,-24.902,0
1594927531.117,-24.414,-20.508,-23.926,-23.438,0
1594927531.121,-31.250,-21.484,-23.438,-31.250,0
1594927531.125,-37.109,-20.996,-25.879,-37.598,0
1594927531.128,-36.133,-16.602,-28.809,-36.133,0
1594927531.132,-34.180,-18.066,-32.227,-36.621,0
1594927531.136,-35.156,-22.461,-36.621,-32.715,0
1594927531.140,-37.109,-24.902,-39.062,-35.645,0
1594927531.144,-31.250,-24.902,-41.504,-39.551,0
1594927531.138,-33.203,-20.508,-35.645,-40.039,0
1594927531.142,-33.203,-19.043,-35.645,-35.645,0
1594927531.146,-27.832,-20.996,-34.180,-38.086,0
1594927531.150,-23.926,-21.973,-34.180,-34.180,0
1594927531.154,-34.180,-24.414,-43.945,-27.344,0
1594927531.158,-46.387,-22.949,-35.645,-33.691,0
1594927531.162,-43.457,-23.438,-32.227,-32.227,0
1594927531.165,-44.434,-24.902,-32.715,-28.809,0
1594927531.169,-51.270,-26.855,-34.668,-36.133,0
1594927531.173,-46.875,-31.738,-39.551,-30.273,0
1594927531.177,-45.898,-24.902,-36.621,-29.297,0
1594927531.181,-43.945,-20.508,-36.621,-37.109,0
1594927531.194,-35.645,-19.531,-36.621,-36.621,0
1594927531.198,-39.551,-25.879,-32.715,-34.180,0
1594927531.202,-42.969,-28.320,-31.738,-29.297,0
1594927531.206,-32.227,-23.926,-32.227,-35.156,0
1594927531.210,-27.344,-27.832,-29.785,-32.715,0
1594927531.214,-31.738,-25.879,-30.762,-31.250,0
1594927531.218,-35.645,-20.508,-33.691,-35.156,0
1594927531.221,-34.668,-21.484,-32.227,-34.180,0
1594927531.225,-37.109,-21.484,-25.391,-43.945,0
1594927531.229,-33.203,-18.555,-27.344,-43.457,0
1594927531.233,-27.832,-16.602,-27.832,-41.992,0
1594927531.237,-29.785,-16.602,-24.902,-44.922,0
1594927531.232,-26.855,-15.625,-20.020,-39.062,0
1594927531.236,-21.973,-13.184,-12.695,-40.527,0
1594927531.240,-22.461,-13.672,-20.020,-37.598,0
1594927531.244,-34.668,-20.020,-29.297,-43.457,0
1594927531.248,-32.715,-22.461,-32.227,-50.293,0
1594927531.252,-26.855,-20.508,-30.273,-46.387,0
1594927531.256,-31.738,-20.020,-35.156,-43.945,0
1594927531.259,-26.367,-24.414,-42.480,-41.016,0
1594927531.263,-25.391,-24.902,-33.203,-39.551,0
1594927531.267,-24.414,-24.902,-26.855,-34.668,0
1594927531.271,-27.344,-19.531,-31.250,-26.367,0
1594927531.275,-35.156,-17.578,-29.297,-26.855,0
1594927531.288,-33.203,-20.508,-25.391,-27.832,0
1594927531.292,-37.109,-20.508,-29.785,-27.344,0
1594927531.296,-40.527,-28.809,-34.180,-30.762,0
1594927531.300,-37.598,-29.785,-24.902,-35.156,0
1594927531.304,-37.598,-23.926,-26.855,-39.062,0
1594927531.308,-43.457,-24.902,-31.738,-40.039,0
1594927531.312,-45.898,-27.344,-32.227,-37.598,0
1594927531.315,-52.246,-29.297,-32.227,-38.086,0
1594927531.319,-53.711,-23.438,-29.785,-34.180,0
1594927531.323,-48.340,-19.531,-27.832,-38.086,0
1594927531.327,-40.527,-22.461,-29.297,-40.039,0
1594927531.331,-29.785,-23.438,-28.809,-30.762,0
1594927531.327,-33.691,-20.996,-23.438,-23.926,0
1594927531.331,-35.645,-22.461,-25.879,-30.762,0
1594927531.335,-38.086,-22.461,-27.832,-42.969,0
1594927531.339,-42.480,-16.113,-28.320,-44.922,0
1594927531.343,-38.086,-19.531,-37.109,-45.898,0
1594927531.347,-30.762,-23.926,-37.109,-51.270,0
1594927531.351,-25.391,-19.043,-29.297,-49.805,0
1594927531.354,-31.250,-14.648,-28.809,-45.898,0
1594927531.358,-38.086,-15.625,-30.762,-43.457,0
1594927531.362,-31.250,-20.508,-35.156,-33.691,0
1594927531.366,-35.645,-20.996,-34.180,-43.457,0
1594927531.370,-47.363,-20.508,-29.785,-55.176,0
1594927531.382,-39.551,-14.648,-27.832,-53.223,0
1594927531.386,-35.645,-12.207,-27.832,-45.898,0
1594927531.390,-34.180,-15.137,-23.926,-38.086,0
1594927531.394,-32.715,-15.137,-19.531,-39.551,0
1594927531.398,-35.645,-17.090,-21.973,-39.062,0
1594927531.402,-36.621,-19.531,-27.344,-35.156,0
1594927531.406,-35.645,-21.484,-29.785,-30.273,0
1594927531.409,-34.180,-20.020,-26.855,-23.926,0
1594927531.413,-35.156,-19.043,-20.996,-35.156,0
1594927531.417,-36.621,-22.461,-18.066,-41.504,0
1594927531.421,-39.551,-24.902,-21.973,-40.039,0
1594927531.425,-42.480,-25.879,-27.832,-41.992,0
1594927531.419,-41.504,-24.414,-36.133,-39.062,0
1594927531.423,-35.156,-25.879,-49.805,-31.250,0
1594927531.427,-40.527,-27.344,-59.570,-40.527,0
1594927531.431,-38.086,-22.461,-66.406,-47.852,0
1594927531.435,-33.203,-15.137,-64.941,-38.086,0
1594927531.439,-31.250,-18.555,-51.270,-38.086,0
1594927531.443,-30.762,-22.949,-41.992,-41.016,0
1594927531.446,-31.250,-18.555,-33.203,-33.691,0
1594927531.450,-29.297,-19.531,-31.738,-36.133,0
1594927531.454,-29.785,-23.438,-31.738,-37.109,0
1594927531.458,-29.297,-24.414,-31.250,-39.551,0
1594927531.462,-29.297,-22.461,-33.691,-43.457,0
1594927531.475,-29.785,-8.789,-26.367,-45.898,0
1594927531.479,-24.902,-8.789,-27.832,-44.922,0
1594927531.483,-26.367,-16.113,-27.832,-28.809,0
1594927531.487,-26.367,-15.137,-21.484,-32.227,0
1594927531.491,-26.367,-17.578,-22.949,-41.016,0
1594927531.495,-26.367,-22.461,-20.996,-39.062,0
1594927531.499,-30.273,-22.949,-19.043,-37.109,0
1594927531.502,-35.156,-23.438,-21.484,-34.180,0
1594927531.506,-35.645,-20.508,-20.508,-33.691,0
1594927531.510,-34.668,-22.461,-20.020,-33.203,0
1594927531.514,-41.992,-22.949,-15.625,-37.109,0
1594927531.518,-41.504,-19.531,-14.160,-36.133,0
1594927531.513,-38.574,-22.949,-12.207,-27.832,1
1594927531.517,-38.086,-22.461,-15.137,-27.832,0
1594927531.521,-40.527,-18.066,-21.484,-37.598,0
1594927531.525,-42.480,-20.996,-24.902,-37.109,0
1594927531.529,-35.645,-21.484,-31.738,-40.039,0
1594927531.533,-38.574,-18.555,-30.762,-37.598,0
1594927531.537,-43.457,-28.320,-28.320,-34.668,0
1594927531.540,-41.504,-28.809,-30.762,-38.086,0
1594927531.544,-41.504,-19.531,-31.738,-34.668,0
1594927531.548,-33.203,-18.555,-33.691,-27.832,0
1594927531.552,-40.039,-22.949,-28.320,-35.645,0
1594927531.556,-39.551,-23.926,-28.320,-45.410,0
1594927531.569,-31.250,-13.672,-28.320,-37.598,0
1594927531.573,-35.156,-14.160,-24.902,-35.645,0
1594927531.577,-30.762,-16.602,-28.320,-37.109,0
1594927531.581,-33.203,-17.090,-19.043,-39.551,0
1594927531.585,-40.527,-20.020,-19.043,-39.551,0
1594927531.589,-42.480,-25.879,-22.461,-39.551,0
1594927531.593,-39.062,-27.344,-26.367,-39.062,0
1594927531.596,-30.762,-20.020,-25.879,-30.273,0
1594927531.600,-33.691,-22.461,-21.484,-27.344,0
1594927531.604,-32.715,-26.855,-25.391,-33.691,0
1594927531.608,-26.367,-19.531,-26.367,-40.527,0
1594927531.612,-29.297,-15.625,-25.879,-41.504,0
1594927531.607,-26.855,-14.648,-26.367,-41.016,0
1594927531.611,-24.414,-18.555,-24.414,-32.715,0
1594927531.615,-31.250,-20.020,-27.832,-29.785,0
1594927531.619,-32.227,-22.461,-44.922,-33.203,0
1594927531.623,-29.297,-20.508,-44.922,-31.250,0
1594927531.627,-31.250,-16.602,-35.645,-41.992,0
1594927531.631,-31.738,-19.531,-35.156,-47.852,0
1594927531.634,-23.926,-17.578,-33.691,-40.527,0
1594927531.638,-20.508,-11.719,-36.621,-36.621,0
1594927531.642,-20.508,-12.695,-41.992,-39.062,0
1594927531.646,-16.113,-13.184,-34.180,-39.062,0
1594927531.650,-20.020,-11.719,-31.738,-39.062,0
1594927531.663,-19.531,-11.230,-38.574,-43.457,0
1594927531.667,-25.879,-17.578,-43.945,-43.945,0
1594927531.671,-38.574,-23.926,-41.016,-43.457,0
1594927531.675,-41.504,-21.973,-33.203,-41.016,0
1594927531.679,-46.387,-18.555,-32.227,-33.203,0
1594927531.683,-49.805,-18.066,-27.832,-28.809,0
1594927531.687,-48.340,-19.531,-27.344,-22.949,0
1594927531.690,-54.199,-22.461,-36.621,-18.555,0
1594927531.694,-56.152,-18.555,-25.879,-23.438,0
1594927531.698,-51.758,-20.996,-25.391,-35.156,0
1594927531.702,-50.293,-20.996,-31.250,-40.039,0
1594927531.706,-46.387,-20.020,-26.855,-39.551,0
1594927531.700,-38.086,-16.602,-20.996,-35.156,0
1594927531.704,-27.832,-17.090,-17.090,-22.949,0
1594927531.708,-18.066,-23.926,-18.066,-11.719,0
1594927531.712,-17.090,-21.484,-24.414,-14.160,0
1594927531.716,-14.160,-24.414,-29.785,-19.531,0
1594927531.720,-14.160,-27.344,-29.785,-26.855,0
1594927531.724,-17.090,-24.902,-27.344,-28.809,0
1594927531.727,-19.043,-22.461,-22.949,-30.762,0
1594927531.731,-26.855,-23.926,-25.879,-36.621,0
1594927531.735,-18.066,-25.391,-27.832,-19.531,0
1594927531.739,-18.066,-27.832,-19.043,-19.043,0
1594927531.743,-18.555,-25.391,-15.625,-28.320,0
1594927531.757,-21.973,-20.508,-20.508,-29.785,0
1594927531.761,-27.832,-24.902,-25.879,-30.762,0
1594927531.765,-34.668,-24.414,-22.949,-27.344,0
1594927531.769,-41.992,-21.484,-19.531,-35.645,0
1594927531.773,-35.645,-17.578,-28.809,-37.598,0
1594927531.777,-34.668,-14.648,-27.344,-31.250,0
1594927531.781,-38.574,-17.578,-32.715,-28.320,0
1594927531.784,-36.133,-20.508,-36.621,-25.879,0
1594927531.788,-31.250,-19.531,-29.297,-24.902,0
1594927531.792,-23.438,-16.113,-29.297,-22.461,0
1594927531.796,-29.297,-16.113,-35.645,-28.320,0
1594927531.800,-32.715,-26.367,-40.039,-27.344,0
1594927531.795,-37.598,-26.367,-36.133,-13.672,0
1594927531.799,-38.574,-20.996,-38.574,-19.043,0
1594927531.803,-22.949,-18.066,-35.156,-28.320,0
1594927531.807,-18.555,-20.020,-36.133,-28.320,0
1594927531.811,-19.043,-22.949,-40.039,-26.855,0
1594927531.815,-15.137,-19.043,-28.809,-26.855,0
1594927531.819,-17.090,-17.578,-21.973,-26.367,0
1594927531.822,-26.367,-17.578,-24.414,-27.344,0
1594927531.826,-26.367,-22.461,-25.879,-21.973,0
1594927531.830,-21.484,-25.391,-26.855,-15.625,0
1594927531.834,-27.344,-18.066,-25.391,-25.879,0
1594927531.838,-28.320,-22.949,-23.926,-31.250,0
1594927531.852,-31.250,-20.020,-23.926,-36.133,0
1594927531.856,-26.855,-18.066,-29.785,-43.457,0
1594927531.860,-35.156,-24.902,-41.016,-43.945,0
1594927531.864,-40.527,-19.531,-39.062,-48.340,0
1594927531.868,-41.504,-19.043,-36.621,-58.594,0
1594927531.872,-44.922,-24.414,-39.062,-64.453,0
1594927531.876,-44.922,-23.926,-33.691,-65.430,0
1594927531.879,-52.734,-21.973,-30.762,-67.383,0
1594927531.883,-48.340,-19.043,-28.809,-65.918,0
1594927531.887,-47.852,-19.043,-31.250,-65.430,0
1594927531.891,-48.340,-23.438,-32.227,-66.895,0
1594927531.895,-49.805,-27.344,-37.598,-61.523,0
1594927531.888,-42.969,-27.832,-40.039,-54.199,0
1594927531.892,-34.180,-23.438,-33.691,-49.805,0
1594927531.896,-27.344,-15.137,-30.762,-39.062,0
1594927531.900,-19.531,-12.207,-33.203,-34.180,0
1594927531.904,-31.250,-20.996,-34.668,-36.133,0
1594927531.908,-38.574,-26.367,-33.203,-36.133,0
1594927531.912,-36.621,-26.367,-32.715,-35.645,0
1594927531.915,-39.551,-23.926,-32.227,-35.645,0
1594927531.919,-36.133,-14.160,-30.762,-36.621,0
1594927531.923,-31.738,-17.090,-33.203,-30.762,0
1594927531.927,-31.738,-17.578,-34.180,-26.367,0
1594927531.931,-30.762,-13.672,-32.227,-26.367,0
1594927531.944,-35.645,-17.090,-28.320,-31.738,0
1594927531.948,-39.551,-20.508,-29.785,-37.598,0
1594927531.952,-37.598,-19.043,-29.785,-30.762,0
1594927531.956,-37.598,-14.648,-28.320,-36.133,0
1594927531.960,-36.133,-19.043,-25.391,-38.086,0
1594927531.964,-33.691,-21.484,-19.531,-35.645,0
1594927531.968,-36.621,-20.996,-22.461,-39.551,0
1594927531.971,-39.062,-22.461,-23.438,-35.156,0
1594927531.975,-37.598,-20.508,-23.926,-44.922,0
1594927531.979,-36.133,-20.020,-26.855,-53.711,0
1594927531.983,-33.203,-18.555,-29.297,-50.293,0
1594927531.987,-37.598,-16.113,-32.715,-51.758,0
1594927531.982,-36.133,-16.602,-26.367,-48.828,0
1594927531.986,-34.668,-19.043,-23.438,-51.270,0
1594927531.990,-41.504,-22.949,-21.973,-49.316,0
1594927531.994,-46.387,-23.926,-22.461,-43.945,0
1594927531.998,-49.316,-26.367,-28.809,-52.246,0
1594927532.002,-40.039,-28.320,-24.902,-48.340,0
1594927532.006,-40.527,-26.855,-22.949,-39.062,0
1594927532.009,-50.293,-21.973,-19.531,-46.387,0
1594927532.013,-50.781,-20.508,-18.066,-44.434,0
1594927532.017,-50.781,-20.020,-19.043,-30.273,0
1594927532.021,-48.340,-22.949,-17.090,-34.668,0
1594927532.025,-47.852,-26.855,-20.508,-36.621,0
1594927532.038,-43.945,-17.578,-22.949,-41.992,0
1594927532.042,-39.062,-16.602,-24.414,-39.551,0
1594927532.046,-42.969,-19.531,-25.879,-32.227,0
1594927532.050,-47.852,-15.625,-26.367,-44.922,0
1594927532.054,-43.945,-17.090,-25.879,-45.410,0
1594927532.058,-42.969,-18.066,-24.414,-36.133,0
1594927532.062,-43.945,-19.043,-24.902,-35.156,0
1594927532.065,-42.480,-21.973,-28.809,-32.227,0
1594927532.069,-41.016,-20.508,-26.367,-34.180,0
1594927532.073,-37.598,-21.484,-24.414,-37.598,0
1594927532.077,-40.039,-24.902,-30.762,-41.016,0
1594927532.081,-40.039,-30.762,-37.109,-43.945,0
1594927532.077,-40.039,-33.691,-36.133,-45.410,0
1594927532.081,-45.898,-32.715,-34.180,-45.410,0
1594927532.085,-45.410,-32.227,-33.203,-49.805,0
1594927532.089,-45.898,-33.203,-31.250,-50.781,0
1594927532.093,-42.480,-35.645,-31.738,-44.434,0
1594927532.097,-44.434,-27.832,-26.855,-45.898,0
1594927532.101,-46.875,-22.949,-24.414,-41.992,0
1594927532.104,-47.363,-27.832,-26.367,-33.203,0
1594927532.108,-49.316,-31.738,-28.320,-28.809,0
1594927532.112,-47.852,-30.273,-26.367,-26.855,0
1594927532.116,-44.434,-27.344,-21.973,-30.762,0
1594927532.120,-45.898,-23.926,-24.902,-31.250,0
1594927532.132,-53.223,-25.391,-25.879,-33.691,0
1594927532.136,-52.734,-25.879,-29.297,-43.457,0
1594927532.140,-45.898,-24.902,-23.438,-39.062,0
1594927532.144,-45.410,-22.949,-18.555,-30.762,0
1594927532.148,-50.293,-24.414,-22.949,-31.250,0
1594927532.152,-47.363,-27.344,-22.949,-33.691,0
1594927532.156,-36.621,-20.508,-21.484,-35.156,0
1594927532.159,-40.527,-17.090,-20.020,-21.484,0
1594927532.163,-34.180,-17.578,-17.578,-17.578,0
1594927532.167,-22.461,-19.531,-24.414,-30.762,0
1594927532.171,-28.809,-21.973,-27.832,-36.621,0
1594927532.175,-37.109,-24.414,-28.320,-36.621,0
1594927532.169,-36.621,-21.484,-27.344,-41.504,0
1594927532.173,-39.551,-18.555,-30.273,-50.293,0
1594927532.177,-54.199,-24.414,-35.645,-54.688,0
1594927532.181,-56.641,-23.926,-40.039,-58.594,0
1594927532.185,-55.176,-21.973,-36.133,-63.965,0
1594927532.189,-48.828,-27.344,-33.203,-64.941,0
1594927532.193,-42.969,-30.762,-34.668,-60.059,0
1594927532.196,-51.270,-29.785,-29.785,-56.641,0
1594927532.200,-46.387,-24.902,-26.367,-58.594,0
1594927532.204,-31.250,-26.367,-30.762,-49.805,0
1594927532.208,-36.621,-30.762,-29.785,-44.434,0
1594927532.212,-45.410,-25.391,-29.785,-50.293,0
1594927532.225,-44.434,-21.973,-34.180,-51.270,0
1594927532.229,-41.016,-19.531,-35.645,-47.363,0
1594927532.233,-43.457,-16.602,-33.691,-44.434,0
1594927532.237,-36.621,-13.184,-25.879,-42.969,0
1594927532.241,-23.438,-13.672,-24.414,-37.598,0
1594927532.245,-25.879,-19.043,-24.414,-34.180,0
1594927532.249,-30.273,-27.344,-23.926,-30.762,0
1594927532.252,-33.691,-29.297,-26.855,-30.762,0
1594927532.256,-33.203,-19.531,-26.855,-29.785,0
1594927532.260,-25.879,-18.555,-27.344,-26.367,0
1594927532.264,-26.367,-21.973,-25.391,-34.180,0
1594927532.268,-35.156,-17.090,-27.344,-42.480,0
1594927532.263,-34.668,-20.020,-30.762,-39.551,0
1594927532.267,-32.715,-21.973,-36.133,-39.062,0
1594927532.271,-34.668,-18.066,-35.156,-41.504,0
1594927532.275,-33.203,-20.996,-28.809,-43.457,0
1594927532.279,-43.457,-25.879,-30.762,-49.805,0
1594927532.283,-41.992,-22.949,-29.785,-42.969,0
1594927532.287,-31.250,-18.555,-26.855,-35.156,0
1594927532.290,-36.133,-18.555,-24.902,-38.086,0
1594927532.294,-36.133,-20.996,-30.762,-33.691,0
1594927532.298,-33.691,-24.414,-35.645,-24.902,0
1594927532.302,-36.133,-20.996,-25.879,-31.738,0
1594927532.306,-35.156,-16.602,-20.996,-29.785,0
1594927532.319,-33.203,-13.184,-28.320,-25.879,0
1594927532.323,-29.785,-14.160,-29.785,-29.785,0
1594927532.327,-20.996,-15.137,-27.344,-24.902,0
1594927532.331,-28.320,-11.719,-25.879,-32.715,0
1594927532.335,-30.273,-13.672,-26.367,-38.574,0
1594927532.339,-22.949,-15.137,-22.461,-42.969,0
1594927532.343,-33.691,-17.578,-22.461,-45.898,0
1594927532.346,-38.574,-20.020,-29.297,-40.527,0
1594927532.350,-41.016,-20.996,-27.344,-41.504,0
1594927532.354,-45.898,-23.438,-27.832,-36.621,0
1594927532.358,-40.527,-21.484,-26.855,-31.250,0
1594927532.362,-43.945,-20.996,-27.832,-29.297,0
1594927532.357,-45.898,-21.973,-26.855,-27.344,0
1594927532.361,-37.598,-18.066,-22.949,-26.855,0
1594927532.365,-28.320,-10.254,-27.344,-32.227,0
1594927532.369,-30.273,-9.277,-29.297,-33.691,0
1594927532.373,-39.062,-15.137,-30.273,-41.992,0
1594927532.377,-41.992,-16.602,-31.738,-42.480,0
1594927532.381,-37.598,-15.137,-31.738,-41.016,0
1594927532.384,-28.809,-14.160,-32.227,-42.969,0
1594927532.388,-28.809,-18.555,-33.203,-37.598,0
1594927532.392,-21.973,-17.090,-32.715,-32.715,0
1594927532.396,-28.320,-16.602,-27.344,-43.457,0
1594927532.400,-33.203,-22.949,-23.926,-52.734,0
1594927532.413,-29.297,-21.973,-23.926,-46.875,0
1594927532.417,-32.227,-20.020,-24.902,-44.434,0
1594927532.421,-35.645,-22.949,-23.438,-40.039,0
1594927532.425,-34.180,-22.949,-16.602,-40.039,2
1594927532.429,-38.086,-24.902,-18.066,-41.016,0
1594927532.433,-39.062,-26.367,-22.461,-38.574,0
1594927532.437,-37.109,-23.926,-24.902,-41.016,0
1594927532.440,-39.551,-18.066,-24.414,-44.434,0
1594927532.444,-32.227,-19.043,-20.508,-45.410,0
1594927532.448,-30.273,-21.484,-29.785,-51.270,0
1594927532.452,-30.273,-17.090,-31.250,-49.316,0
1594927532.456,-22.949,-13.184,-28.320,-43.457,0
1594927532.450,-27.344,-15.625,-31.738,-46.387,0
1594927532.454,-35.645,-21.484,-33.203,-42.480,0
1594927532.458,-32.227,-26.855,-35.645,-33.203,0
1594927532.462,-34.668,-21.484,-32.715,-24.902,0
1594927532.466,-45.898,-19.043,-30.762,-20.508,0
1594927532.470,-46.387,-18.066,-33.691,-32.715,0
1594927532.474,-42.969,-16.602,-35.645,-43.457,0
1594927532.477,-47.852,-15.625,-32.227,-51.270,0
1594927532.481,-47.363,-17.090,-31.738,-44.434,0
1594927532.485,-38.574,-16.602,-31.250,-31.738,0
1594927532.489,-33.203,-11.230,-26.855,-30.273,0
1594927532.493,-34.180,-15.625,-28.809,-33.691,0
1594927532.507,-33.691,-19.531,-26.855,-32.715,0
1594927532.511,-37.598,-18.066,-31.738,-26.855,0
1594927532.515,-41.016,-18.555,-34.668,-29.785,0
1594927532.519,-39.062,-19.043,-26.367,-33.203,0
1594927532.523,-36.621,-19.531,-32.715,-36.133,0
1594927532.527,-34.180,-18.066,-34.180,-37.109,0
1594927532.531,-31.738,-20.996,-34.180,-28.320,0
1594927532.534,-40.039,-22.461,-35.645,-24.902,0
1594927532.538,-43.945,-23.926,-34.668,-32.227,0
1594927532.542,-35.645,-26.855,-41.504,-30.762,0
1594927532.546,-29.785,-20.996,-35.645,-26.855,0
1594927532.550,-20.996,-14.160,-30.273,-22.949,0
1594927532.545,-19.531,-15.137,-32.227,-31.250,0
1594927532.549,-31.250,-24.414,-28.809,-44.434,0
1594927532.553,-35.645,-30.762,-25.391,-45.410,0
1594927532.557,-31.250,-25.879,-28.809,-37.598,0
1594927532.561,-28.320,-26.367,-33.203,-30.762,0
1594927532.565,-21.973,-27.832,-30.762,-31.250,0
1594927532.569,-21.973,-29.297,-31.250,-31.250,0
1594927532.572,-22.949,-28.320,-25.879,-25.391,0
1594927532.576,-27.832,-26.855,-26.855,-28.320,0
1594927532.580,-28.320,-27.832,-31.250,-30.762,0
1594927532.584,-18.555,-23.438,-25.391,-31.738,0
1594927532.588,-22.949,-18.555,-25.879,-39.062,0
1594927532.600,-30.762,-18.555,-26.367,-43.945,0
1594927532.604,-30.273,-19.531,-30.273,-36.621,0
1594927532.608,-34.180,-16.602,-28.320,-23.926,0
1594927532.612,-39.551,-15.137,-20.020,-28.320,0
1594927532.616,-41.504,-18.066,-20.508,-39.062,0
1594927532.620,-42.480,-18.555,-25.879,-40.039,0
1594927532.624,-25.391,-17.090,-30.762,-33.691,0
1594927532.627,-29.297,-25.879,-31.250,-30.762,0
1594927532.631,-42.969,-29.297,-21.973,-37.598,0
1594927532.635,-26.855,-17.578,-18.555,-34.668,0
1594927532.639,-23.926,-15.137,-23.438,-27.344,0
1594927532.643,-20.020,-17.090,-26.855,-26.367,0
1594927532.638,-23.926,-16.602,-26.367,-33.691,0
1594927532.642,-33.691,-15.137,-29.785,-33.691,0
1594927532.646,-31.250,-13.184,-29.297,-31.738,0
1594927532.650,-28.809,-21.484,-25.879,-38.086,0
1594927532.654,-31.738,-24.414,-29.297,-31.738,0
1594927532.658,-30.273,-16.113,-28.320,-26.855,0
1594927532.662,-27.344,-14.648,-27.832,-28.809,0
1594927532.665,-34.180,-18.066,-27.344,-31.250,0
1594927532.669,-33.691,-20.508,-26.367,-34.180,0
1594927532.673,-32.715,-21.484,-35.156,-33.203,0
1594927532.677,-33.203,-18.066,-31.250,-36.621,0
1594927532.681,-28.320,-20.508,-25.391,-37.109,0
1594927532.694,-34.668,-25.391,-32.715,-36.133,0
1594927532.698,-42.480,-28.320,-36.133,-39.062,0
1594927532.702,-42.969,-28.320,-36.133,-42.480,0
1594927532.706,-31.738,-21.973,-37.109,-48.828,0
1594927532.710,-27.832,-19.531,-37.598,-44.434,0
1594927532.714,-30.273,-19.531,-35.645,-45.898,0
1594927532.718,-33.691,-16.113,-34.180,-45.410,0
1594927532.721,-39.062,-14.648,-28.809,-30.273,0
1594927532.725,-32.715,-10.254,-27.344,-32.715,0
1594927532.729,-29.297,-11.230,-27.344,-41.504,0
1594927532.733,-31.250,-17.578,-23.926,-39.551,0
1594927532.737,-35.645,-21.484,-31.250,-36.133,0
1594927532.732,-41.016,-23.438,-34.180,-38.086,0
1594927532.736,-41.504,-23.438,-29.297,-41.504,0
1594927532.740,-40.527,-18.066,-29.785,-41.016,0
1594927532.744,-41.016,-14.648,-29.785,-40.527,0
1594927532.748,-32.227,-10.742,-27.344,-30.762,0
1594927532.752,-23.438,-10.742,-27.344,-27.832,0
1594927532.756,-28.320,-11.230,-27.832,-37.598,0
1594927532.759,-27.344,-8.301,-28.320,-36.621,0
1594927532.763,-23.926,-12.207,-28.809,-34.668,0
1594927532.767,-31.738,-17.578,-24.902,-36.133,0
1594927532.771,-34.668,-15.137,-24.414,-44.434,0
1594927532.775,-29.785,-10.742,-23.438,-47.852,0
1594927532.788,-26.855,-12.207,-18.555,-39.062,0
1594927532.792,-36.133,-16.602,-20.508,-41.016,0
1594927532.796,-39.062,-16.602,-27.832,-39.062,0
1594927532.800,-35.645,-11.230,-27.832,-43.945,0
1594927532.804,-41.504,-8.789,-22.461,-42.480,0
1594927532.808,-35.645,-18.555,-23.438,-39.551,0
1594927532.812,-31.250,-20.508,-27.832,-45.410,0
1594927532.815,-32.715,-20.020,-32.715,-39.551,0
1594927532.819,-40.039,-25.391,-29.297,-42.480,0
1594927532.823,-41.504,-23.926,-25.391,-49.316,0
1594927532.827,-25.391,-14.648,-24.414,-41.016,0
1594927532.831,-34.180,-16.113,-27.344,-39.062,0
1594927532.827,-46.875,-20.508,-35.156,-44.922,0
1594927532.831,-44.434,-18.555,-36.133,-41.992,0
1594927532.835,-43.457,-20.996,-35.156,-36.621,0
1594927532.839,-45.898,-23.926,-35.156,-44.922,0
1594927532.843,-44.434,-27.832,-38.086,-47.363,0
1594927532.847,-47.363,-27.832,-36.621,-39.551,0
1594927532.851,-45.898,-26.367,-29.785,-39.062,0
1594927532.854,-37.109,-30.762,-29.297,-40.527,0
1594927532.858,-34.180,-35.645,-35.156,-41.504,0
1594927532.862,-37.598,-35.156,-34.668,-35.156,0
1594927532.866,-36.621,-29.785,-26.367,-34.180,0
1594927532.870,-33.691,-33.203,-27.832,-42.969,0
1594927532.882,-39.551,-36.133,-28.809,-41.016,0
1594927532.886,-35.645,-35.645,-33.203,-35.156,0
1594927532.890,-35.645,-31.738,-31.738,-33.691,0
1594927532.894,-45.410,-26.855,-22.461,-37.598,0
1594927532.898,-35.645,-32.227,-25.879,-37.109,0
1594927532.902,-34.668,-33.203,-27.344,-36.621,0
1594927532.906,-42.480,-29.297,-25.879,-39.551,0
1594927532.909,-38.086,-27.344,-22.461,-32.715,0
1594927532.913,-41.016,-23.926,-18.555,-34.668,0
1594927532.917,-42.969,-29.297,-19.531,-38.574,0
1594927532.921,-35.645,-26.367,-22.949,-42.969,0
1594927532.925,-36.133,-23.926,-27.344,-44.434,0
1594927532.919,-45.410,-28.809,-28.320,-40.527,0
1594927532.923,-46.875,-29.297,-33.203,-38.086,0
1594927532.927,-38.086,-24.902,-34.668,-31.738,0
1594927532.931,-37.109,-23.438,-37.598,-38.086,0
1594927532.935,-36.621,-24.414,-39.062,-46.387,0
1594927532.939,-38.086,-21.484,-38.086,-47.363,0
1594927532.943,-44.434,-19.043,-40.039,-45.898,0
1594927532.946,-41.504,-21.484,-36.133,-39.062,0
1594927532.950,-33.203,-26.367,-36.133,-40.527,0
1594927532.954,-30.273,-25.879,-36.133,-37.598,0
1594927532.958,-34.668,-13.672,-31.250,-39.062,0
1594927532.962,-31.250,-11.719,-32.227,-41.016,0
1594927532.975,-24.414,-13.672,-34.180,-32.227,0
1594927532.979,-26.367,-15.137,-36.621,-34.180,0
1594927532.983,-27.832,-19.531,-36.621,-37.109,0
1594927532.987,-29.785,-23.926,-32.715,-38.086,0
1594927532.991,-33.203,-24.902,-35.645,-45.410,0
1594927532.995,-33.203,-23.926,-35.156,-56.152,0
1594927532.999,-34.668,-20.508,-35.645,-54.199,0
1594927533.002,-35.156,-22.949,-33.203,-45.898,0
1594927533.006,-36.133,-30.273,-22.949,-51.758,0
1594927533.010,-35.156,-28.320,-20.996,-47.363,0
1594927533.014,-34.180,-32.715,-20.996,-38.086,0
1594927533.018,-33.691,-33.691,-23.438,-39.551,0
1594927533.013,-32.227,-24.414,-22.949,-36.621,0
1594927533.017,-36.133,-19.043,-24.902,-32.227,0
1594927533.021,-34.180,-17.090,-21.973,-27.832,0
1594927533.025,-28.320,-22.949,-22.949,-33.691,0
1594927533.029,-34.180,-25.391,-29.785,-35.156,0
1594927533.033,-37.109,-23.926,-28.809,-34.668,0
1594927533.037,-46.387,-27.344,-24.414,-41.504,0
1594927533.040,-45.410,-22.949,-25.879,-42.480,0
1594927533.044,-40.527,-21.484,-31.738,-35.645,0
1594927533.048,-35.645,-21.484,-30.273,-27.344,0
1594927533.052,-36.621,-16.602,-26.855,-38.086,0
1594927533.056,-41.504,-20.508,-29.785,-41.504,0
1594927533.070,-41.504,-24.414,-29.785,-34.668,0
1594927533.074,-38.086,-26.855,-28.320,-38.574,0
1594927533.078,-35.156,-23.438,-31.738,-42.969,0
1594927533.082,-34.668,-16.602,-32.227,-49.316,0
1594927533.086,-31.738,-20.020,-32.715,-43.457,0
1594927533.090,-31.738,-23.438,-25.879,-41.504,0
1594927533.094,-29.785,-26.367,-29.785,-50.293,0
1594927533.097,-33.691,-26.855,-39.062,-46.387,0
1594927533.101,-41.504,-28.809,-32.227,-47.363,0
1594927533.105,-37.109,-34.668,-25.879,-46.875,0
1594927533.109,-38.086,-30.762,-27.344,-44.434,0
1594927533.113,-39.551,-30.273,-29.785,-36.621,0
1594927533.107,-39.551,-34.668,-29.297,-29.785,0
1594927533.111,-41.504,-35.156,-25.879,-41.016,0
1594927533.115,-42.969,-30.273,-25.879,-41.504,0
1594927533.119,-42.480,-27.832,-29.297,-33.691,0
1594927533.123,-47.852,-25.391,-25.879,-33.203,0
1594927533.127,-50.781,-25.391,-24.414,-31.250,0
1594927533.131,-44.922,-26.367,-32.715,-40.039,0
1594927533.134,-42.480,-24.902,-32.715,-45.898,0
1594927533.138,-44.922,-26.855,-32.227,-45.898,0
1594927533.142,-37.598,-26.855,-31.250,-41.504,0
1594927533.146,-32.227,-21.484,-26.367,-45.898,0
1594927533.150,-35.645,-25.391,-26.855,-41.016,0
1594927533.163,-33.203,-32.227,-30.762,-40.527,0
1594927533.167,-31.738,-29.785,-33.203,-48.828,0
1594927533.171,-35.156,-25.879,-30.273,-40.527,0
1594927533.175,-35.156,-22.949,-32.227,-34.180,0
1594927533.179,-33.203,-26.855,-33.203,-37.109,0
1594927533.183,-36.133,-31.250,-32.227,-46.875,0
1594927533.187,-47.852,-30.273,-33.203,-44.434,0
1594927533.190,-46.875,-24.902,-27.832,-33.691,0
1594927533.194,-43.945,-20.020,-23.926,-40.527,0
1594927533.198,-49.316,-22.949,-29.297,-49.316,0
1594927533.202,-49.805,-26.855,-30.762,-46.875,0
1594927533.206,-43.945,-23.926,-26.855,-41.504,0
1594927533.200,-39.062,-16.113,-24.414,-37.109,0
1594927533.204,-37.109,-12.695,-22.461,-36.621,0
1594927533.208,-38.086,-14.160,-21.484,-43.457,0
1594927533.212,-32.715,-9.277,-24.414,-43.945,0
1594927533.216,-21.973,-9.766,-28.320,-50.293,0
1594927533.220,-16.113,-15.137,-29.297,-56.152,0
1594927533.224,-18.066,-13.672,-30.273,-55.176,0
1594927533.227,-30.762,-16.602,-31.738,-55.664,0
1594927533.231,-39.062,-18.066,-32.227,-51.758,0
1594927533.235,-31.738,-18.555,-32.227,-38.574,0
1594927533.239,-38.086,-19.043,-24.902,-27.832,0
1594927533.243,-47.363,-19.531,-24.414,-23.926,0
1594927533.257,-52.246,-18.555,-28.320,-24.414,0
1594927533.261,-45.410,-20.508,-41.016,-26.855,0
1594927533.265,-32.227,-25.391,-49.316,-25.879,0
1594927533.269,-31.738,-20.508,-48.340,-23.926,0
1594927533.273,-36.133,-18.555,-55.664,-25.879,0
1594927533.277,-34.180,-23.438,-54.199,-33.203,0
1594927533.281,-27.832,-23.926,-37.598,-30.273,0
1594927533.284,-28.809,-20.020,-31.250,-27.344,0
1594927533.288,-34.668,-10.254,-27.344,-36.621,2
1594927533.292,-39.551,-9.766,-24.902,-38.574,0
1594927533.296,-47.363,-15.137,-30.273,-38.574,0
1594927533.300,-42.969,-20.508,-35.645,-45.410,0
1594927533.295,-41.016,-21.973,-32.715,-45.410,0
1594927533.299,-43.945,-21.484,-28.320,-42.480,0
1594927533.303,-40.527,-18.555,-25.879,-39.551,0
1594927533.307,-34.180,-18.555,-28.320,-42.969,0
1594927533.311,-31.738,-19.531,-33.691,-42.480,0
1594927533.315,-34.180,-17.578,-31.250,-42.480,0
1594927533.319,-23.438,-14.648,-24.414,-32.715,0
1594927533.322,-27.344,-12.695,-24.902,-30.273,0
1594927533.326,-35.156,-10.742,-24.902,-37.598,0
1594927533.330,-29.297,-12.207,-30.762,-31.738,0
1594927533.334,-32.227,-10.742,-28.320,-28.809,0
1594927533.338,-29.785,-15.137,-26.855,-35.645,0
1594927533.350,-29.297,-21.973,-29.785,-44.922,0
1594927533.354,-32.227,-24.902,-26.367,-43.457,0
1594927533.358,-25.879,-24.414,-26.855,-40.527,0
1594927533.362,-18.066,-16.113,-22.949,-40.527,0
1594927533.366,-19.043,-21.973,-26.855,-36.621,0
1594927533.370,-24.902,-25.879,-32.715,-41.504,0
1594927533.374,-25.391,-17.090,-35.156,-47.852,0
1594927533.377,-25.879,-11.230,-34.668,-37.109,0
1594927533.381,-28.320,-12.207,-30.762,-37.598,0
1594927533.385,-35.645,-13.184,-34.180,-39.551,0
1594927533.389,-36.621,-15.625,-36.133,-31.738,0
1594927533.393,-26.367,-16.113,-33.203,-38.574,0
1594927533.388,-23.926,-14.648,-30.273,-39.062,0
1594927533.392,-34.180,-15.625,-30.762,-37.109,0
1594927533.396,-37.109,-17.090,-21.973,-38.086,0
1594927533.400,-36.621,-14.160,-20.020,-41.504,0
1594927533.404,-43.945,-13.672,-29.785,-38.086,0
1594927533.408,-38.574,-10.742,-28.320,-33.691,0
1594927533.412,-33.691,-9.277,-25.879,-30.762,0
1594927533.415,-35.156,-14.648,-33.203,-32.715,0
1594927533.419,-30.762,-19.531,-33.691,-44.434,0
1594927533.423,-26.367,-19.043,-31.738,-34.668,0
1594927533.427,-25.879,-12.695,-27.344,-28.809,0
1594927533.431,-26.367,-11.719,-20.996,-25.879,0
1594927533.444,-23.926,-12.207,-24.414,-22.461,0
1594927533.448,-21.484,-8.789,-29.297,-32.715,0
1594927533.452,-20.508,-14.160,-27.832,-30.762,0
1594927533.456,-25.391,-15.137,-26.367,-28.320,0
1594927533.460,-33.691,-10.742,-24.902,-36.133,0
1594927533.464,-28.320,-12.207,-24.902,-34.180,0
1594927533.468,-24.414,-16.113,-32.227,-32.227,0
1594927533.471,-34.180,-17.090,-29.297,-41.504,0
1594927533.475,-40.527,-15.625,-22.461,-38.086,0
1594927533.479,-40.527,-10.254,-27.344,-32.227,0
1594927533.483,-35.156,-6.348,-27.344,-37.109,0
1594927533.487,-37.598,-9.766,-27.832,-31.250,0
1594927533.482,-36.621,-9.277,-23.438,-25.391,0
1594927533.486,-35.156,-17.578,-23.926,-37.109,0
1594927533.490,-43.945,-17.090,-25.391,-44.922,0
1594927533.494,-41.016,-12.695,-24.902,-40.527,0
1594927533.498,-37.109,-20.996,-34.180,-33.691,0
1594927533.502,-34.668,-26.855,-27.832,-32.227,0
1594927533.506,-26.367,-27.344,-25.391,-36.133,0
1594927533.509,-26.367,-25.391,-27.832,-35.645,0
1594927533.513,-32.227,-24.902,-27.832,-37.109,0
1594927533.517,-28.320,-27.832,-28.320,-29.297,0
1594927533.521,-21.973,-24.414,-18.555,-25.391,0
1594927533.525,-25.879,-19.531,-18.555,-24.414,0
1594927533.538,-31.738,-14.160,-24.414,-32.227,0
1594927533.542,-33.203,-15.625,-24.414,-38.086,0
1594927533.546,-28.809,-25.879,-22.949,-27.344,0
1594927533.550,-29.297,-26.367,-25.879,-26.855,0
1594927533.554,-34.668,-26.367,-33.203,-33.691,0
1594927533.558,-36.133,-24.902,-26.367,-38.086,0
1594927533.562,-36.133,-25.391,-29.785,-36.621,0
1594927533.565,-35.156,-27.344,-31.738,-34.668,0
1594927533.569,-32.227,-15.137,-21.973,-38.086,0
1594927533.573,-31.250,-17.578,-20.508,-40.039,0
1594927533.577,-32.227,-24.902,-20.508,-39.062,0
1594927533.581,-36.133,-18.066,-25.879,-34.668,0
1594927533.575,-38.574,-16.113,-26.367,-31.738,0
1594927533.579,-36.133,-18.066,-24.414,-36.621,0
1594927533.583,-35.645,-16.602,-29.297,-38.574,0
1594927533.587,-42.969,-15.625,-33.203,-41.016,0
1594927533.591,-43.457,-19.043,-34.668,-46.875,0
1594927533.595,-44.434,-21.484,-33.691,-40.527,0
1594927533.599,-41.992,-21.973,-36.621,-29.297,0
1594927533.602,-32.227,-23.438,-31.738,-36.621,0
1594927533.606,-37.598,-22.949,-29.297,-41.504,0
1594927533.610,-41.992,-20.996,-41.016,-38.086,0
1594927533.614,-37.109,-16.602,-37.109,-40.039,0
1594927533.618,-35.645,-11.719,-29.785,-44.434,0
1594927533.632,-32.715,-13.672,-31.250,-45.898,0
1594927533.636,-30.762,-22.949,-36.621,-44.434,0
1594927533.640,-32.715,-25.391,-37.598,-37.109,0
1594927533.644,-35.645,-16.113,-32.715,-37.109,0
1594927533.648,-31.250,-16.602,-25.391,-35.645,0
1594927533.652,-29.297,-18.555,-28.809,-32.715,0
1594927533.656,-32.715,-18.066,-30.762,-28.320,0
1594927533.659,-29.785,-21.484,-23.438,-24.414,0
1594927533.663,-29.785,-24.414,-15.625,-30.762,0
1594927533.667,-40.527,-33.691,-20.996,-32.227,0
1594927533.671,-40.527,-27.832,-28.320,-34.668,0
1594927533.675,-30.273,-25.391,-29.785,-36.133,0
1594927533.669,-25.879,-28.320,-25.391,-39.062,0
1594927533.673,-24.902,-20.508,-22.461,-31.250,0
1594927533.677,-34.180,-20.996,-26.367,-30.762,0
1594927533.681,-37.109,-20.020,-30.762,-35.156,0
1594927533.685,-33.691,-17.090,-28.320,-27.344,0
1594927533.689,-36.133,-19.531,-27.832,-34.668,0
1594927533.693,-33.691,-24.902,-27.344,-33.691,0
1594927533.696,-33.203,-19.043,-25.391,-28.320,0
1594927533.700,-32.715,-19.043,-26.855,-31.738,0
1594927533.704,-28.809,-24.414,-29.785,-28.809,0
1594927533.708,-32.227,-19.043,-25.391,-26.855,0
1594927533.712,-32.715,-13.672,-24.902,-26.855,0
1594927533.725,-27.832,-15.137,-30.273,-30.273,0
1594927533.729,-30.273,-21.484,-39.551,-32.715,0
1594927533.733,-33.691,-22.461,-60.547,-36.621,0
1594927533.737,-30.762,-13.184,-57.617,-41.504,0
1594927533.741,-23.438,-7.812,-39.062,-34.668,0
1594927533.745,-24.414,-9.766,-36.133,-30.762,0
1594927533.749,-29.297,-11.230,-40.527,-27.344,0
1594927533.752,-31.250,-14.160,-40.039,-25.391,0
1594927533.756,-31.250,-25.879,-34.668,-28.809,0
1594927533.760,-25.391,-21.484,-29.785,-30.273,0
1594927533.764,-28.320,-14.648,-25.879,-35.645,0
1594927533.768,-35.156,-18.555,-29.297,-33.203,0
1594927533.764,-37.598,-20.996,-29.785,-37.598,0
1594927533.768,-43.457,-22.461,-20.996,-40.527,0
1594927533.772,-47.363,-22.461,-20.996,-36.621,0
1594927533.776,-48.828,-24.414,-26.855,-40.527,0
1594927533.780,-46.387,-33.203,-29.785,-35.645,0
1594927533.784,-41.992,-28.809,-28.320,-32.227,0
1594927533.788,-33.203,-19.531,-20.508,-33.203,0
1594927533.791,-37.598,-20.508,-25.879,-38.086,0
1594927533.795,-37.109,-21.484,-38.574,-49.805,0
1594927533.799,-30.762,-25.391,-25.879,-48.340,0
1594927533.803,-40.039,-23.926,-16.602,-41.992,0
1594927533.807,-37.109,-13.184,-25.391,-47.363,0
1594927533.819,-30.273,-12.207,-27.344,-53.223,0
1594927533.823,-30.762,-19.043,-30.273,-42.480,0
1594927533.827,-39.551,-19.531,-36.133,-42.480,0
1594927533.831,-40.527,-14.648,-27.344,-44.922,0
1594927533.835,-28.320,-17.578,-23.438,-39.551,0
1594927533.839,-40.527,-18.066,-28.809,-41.992,0
1594927533.843,-43.457,-19.531,-25.879,-45.898,0
1594927533.846,-32.715,-20.508,-21.484,-37.109,0
1594927533.850,-44.922,-12.207,-20.996,-43.945,0
1594927533.854,-53.223,-16.113,-31.250,-49.316,0
1594927533.858,-41.016,-23.926,-32.227,-38.086,0
1594927533.862,-41.016,-22.949,-31.738,-38.574,0
1594927533.857,-43.457,-22.461,-24.902,-34.668,0
1594927533.861,-40.039,-24.902,-23.926,-28.809,0
1594927533.865,-38.086,-33.691,-33.691,-39.062,0
1594927533.869,-34.180,-38.086,-36.621,-48.340,0
1594927533.873,-30.762,-25.879,-33.691,-45.898,0
1594927533.877,-27.344,-22.461,-32.715,-51.758,0
1594927533.881,-28.320,-25.879,-34.668,-51.270,0
1594927533.884,-25.879,-23.926,-30.273,-43.945,0
1594927533.888,-20.508,-20.020,-30.273,-41.992,0
1594927533.892,-28.320,-20.020,-37.598,-35.156,0
1594927533.896,-33.203,-14.160,-26.855,-36.621,0
1594927533.900,-38.574,-13.672,-18.066,-38.574,0
1594927533.913,-38.574,-18.555,-20.508,-40.039,0
1594927533.917,-27.832,-20.508,-26.855,-36.621,0
1594927533.921,-27.344,-19.531,-30.273,-29.785,0
1594927533.925,-27.344,-20.508,-24.902,-35.156,0
1594927533.929,-28.320,-25.391,-27.344,-31.738,0
1594927533.933,-33.691,-28.320,-27.344,-24.414,0
1594927533.937,-33.691,-27.832,-27.832,-26.367,0
1594927533.940,-29.297,-32.227,-37.598,-29.297,0
1594927533.944,-24.414,-38.574,-29.785,-37.109,0
1594927533.948,-29.785,-32.227,-23.926,-39.062,0
1594927533.952,-36.621,-30.762,-30.273,-34.180,0
1594927533.956,-41.016,-37.109,-35.645,-38.574,0
1594927533.950,-37.109,-30.762,-29.297,-42.480,0
1594927533.954,-37.598,-29.297,-26.367,-44.434,0
1594927533.958,-36.133,-27.344,-27.832,-49.805,0
